Laser settings:
	Diode frequency:	5 Hz
	Pulses fired:		105
	Q-Switch blanking:	5
	Q-Switch delay:		201 μs
	Q-Switch presync:	1 μs
Spectrometer settings:
	Integration time:	0.0090 ms
	Integration delay:	0.000 ns
	Averaging:		1
	Trigger mode:		External
	Dynamic Dark Correction:		Disabled


wavelength,intensity
184.9409,651.0
185.0142,602.0
185.0875,646.0
185.1608,659.0
185.2341,692.0
185.3074,607.0
185.3807,695.0
185.454,635.0
185.5273,695.0
185.6006,670.0
185.6739,665.0
185.7472,611.0
185.8205,699.0
185.8938,611.0
185.9671,745.0
186.0403,622.0
186.1136,661.0
186.1869,607.0
186.2601,677.0
186.3334,624.0
186.4067,699.0
186.4799,582.0
186.5532,673.0
186.6265,634.0
186.6997,692.0
186.773,667.0
186.8462,665.0
186.9195,598.0
186.9928,711.0
187.066,616.0
187.1392,711.0
187.2125,618.0
187.2857,689.0
187.3589,611.0
187.4322,654.0
187.5054,657.0
187.5786,693.0
187.6519,634.0
187.7251,749.0
187.7983,637.0
187.8715,724.0
187.9447,666.0
188.018,695.0
188.0912,652.0
188.1644,738.0
188.2376,654.0
188.3108,729.0
188.384,641.0
188.4572,696.0
188.5304,681.0
188.6036,707.0
188.6768,630.0
188.75,730.0
188.8232,650.0
188.8963,678.0
188.9695,659.0
189.0427,691.0
189.1159,659.0
189.1891,741.0
189.2623,671.0
189.3354,747.0
189.4086,671.0
189.4818,721.0
189.5549,672.0
189.6281,713.0
189.7012,671.0
189.7744,727.0
189.8476,678.0
189.9207,766.0
189.9939,672.0
190.067,725.0
190.1402,667.0
190.2133,725.0
190.2864,653.0
190.3596,740.0
190.4327,658.0
190.5059,723.0
190.579,686.0
190.6521,734.0
190.7253,650.0
190.7984,725.0
190.8715,655.0
190.9446,707.0
191.0177,665.0
191.0908,685.0
191.164,624.0
191.2371,753.0
191.3102,673.0
191.3833,708.0
191.4564,656.0
191.5295,766.0
191.6026,632.0
191.6757,780.0
191.7488,666.0
191.8219,746.0
191.895,683.0
191.968,760.0
192.0411,696.0
192.1142,725.0
192.1873,621.0
192.2604,767.0
192.3334,686.0
192.4065,780.0
192.4796,678.0
192.5527,766.0
192.6257,747.0
192.6988,741.0
192.7718,704.0
192.8449,783.0
192.918,751.0
192.991,863.0
193.064,882.0
193.1371,948.0
193.2101,887.0
193.2832,903.0
193.3562,815.0
193.4292,825.0
193.5023,736.0
193.5753,805.0
193.6484,721.0
193.7214,793.0
193.7944,734.0
193.8674,796.0
193.9405,672.0
194.0135,794.0
194.0865,698.0
194.1595,783.0
194.2325,716.0
194.3055,784.0
194.3785,709.0
194.4515,771.0
194.5246,729.0
194.5975,788.0
194.6705,682.0
194.7435,744.0
194.8165,647.0
194.8895,794.0
194.9625,684.0
195.0355,781.0
195.1085,692.0
195.1815,789.0
195.2544,691.0
195.3274,794.0
195.4004,676.0
195.4734,762.0
195.5463,666.0
195.6193,799.0
195.6923,713.0
195.7652,744.0
195.8382,709.0
195.9111,769.0
195.9841,685.0
196.057,780.0
196.13,722.0
196.2029,766.0
196.2759,662.0
196.3488,722.0
196.4218,736.0
196.4947,763.0
196.5676,739.0
196.6406,765.0
196.7135,661.0
196.7864,774.0
196.8593,669.0
196.9323,765.0
197.0052,690.0
197.0781,758.0
197.151,675.0
197.2239,760.0
197.2969,676.0
197.3697,809.0
197.4427,645.0
197.5156,751.0
197.5885,718.0
197.6614,794.0
197.7343,680.0
197.8072,816.0
197.88,669.0
197.9529,747.0
198.0258,665.0
198.0987,742.0
198.1716,722.0
198.2445,786.0
198.3173,693.0
198.3902,762.0
198.4631,655.0
198.5359,799.0
198.6088,631.0
198.6817,780.0
198.7545,729.0
198.8274,737.0
198.9003,721.0
198.9731,785.0
199.046,658.0
199.1188,752.0
199.1917,708.0
199.2645,804.0
199.3373,704.0
199.4102,749.0
199.483,692.0
199.5559,708.0
199.6287,710.0
199.7015,764.0
199.7744,706.0
199.8472,744.0
199.92,652.0
199.9928,747.0
200.0656,702.0
200.1385,769.0
200.2113,698.0
200.2841,768.0
200.3569,681.0
200.4297,749.0
200.5025,666.0
200.5753,763.0
200.6481,704.0
200.7209,754.0
200.7937,702.0
200.8665,685.0
200.9393,687.0
201.0121,794.0
201.0848,671.0
201.1576,799.0
201.2304,648.0
201.3032,743.0
201.3759,733.0
201.4487,721.0
201.5215,707.0
201.5943,766.0
201.667,665.0
201.7398,746.0
201.8125,614.0
201.8853,773.0
201.958,695.0
202.0308,756.0
202.1035,705.0
202.1763,757.0
202.249,698.0
202.3218,755.0
202.3945,698.0
202.4673,814.0
202.54,734.0
202.6127,767.0
202.6855,665.0
202.7582,775.0
202.8309,665.0
202.9036,747.0
202.9764,677.0
203.0491,742.0
203.1218,687.0
203.1945,748.0
203.2672,735.0
203.3399,730.0
203.4126,647.0
203.4853,807.0
203.558,690.0
203.6307,785.0
203.7034,727.0
203.7761,757.0
203.8488,697.0
203.9215,785.0
203.9942,696.0
204.0669,747.0
204.1395,666.0
204.2122,722.0
204.2849,696.0
204.3576,778.0
204.4302,705.0
204.5029,753.0
204.5756,761.0
204.6482,780.0
204.7209,683.0
204.7935,798.0
204.8662,714.0
204.9389,786.0
205.0115,684.0
205.0842,783.0
205.1568,723.0
205.2294,729.0
205.3021,707.0
205.3747,764.0
205.4474,743.0
205.52,757.0
205.5926,702.0
205.6653,813.0
205.7379,704.0
205.8105,777.0
205.8831,728.0
205.9557,759.0
206.0284,700.0
206.101,770.0
206.1736,716.0
206.2462,774.0
206.3188,725.0
206.3914,728.0
206.464,725.0
206.5366,730.0
206.6092,645.0
206.6818,790.0
206.7544,722.0
206.827,802.0
206.8996,703.0
206.9721,724.0
207.0447,721.0
207.1173,749.0
207.1899,709.0
207.2625,793.0
207.335,706.0
207.4076,804.0
207.4802,722.0
207.5527,788.0
207.6253,658.0
207.6978,785.0
207.7704,716.0
207.843,753.0
207.9155,680.0
207.9881,787.0
208.0606,696.0
208.1331,772.0
208.2057,702.0
208.2782,776.0
208.3508,715.0
208.4233,788.0
208.4958,698.0
208.5684,769.0
208.6409,720.0
208.7134,789.0
208.7859,710.0
208.8584,743.0
208.931,676.0
209.0035,738.0
209.076,692.0
209.1485,817.0
209.221,673.0
209.2935,744.0
209.366,739.0
209.4385,804.0
209.511,698.0
209.5835,832.0
209.656,694.0
209.7285,779.0
209.801,658.0
209.8735,767.0
209.9459,732.0
210.0184,753.0
210.0909,689.0
210.1634,773.0
210.2358,723.0
210.3083,796.0
210.3808,664.0
210.4532,728.0
210.5257,698.0
210.5982,751.0
210.6706,696.0
210.7431,754.0
210.8155,668.0
210.888,727.0
210.9604,661.0
211.0329,778.0
211.1053,677.0
211.1777,720.0
211.2502,689.0
211.3226,722.0
211.3951,697.0
211.4675,754.0
211.5399,668.0
211.6123,796.0
211.6847,693.0
211.7572,762.0
211.8296,701.0
211.902,798.0
211.9744,706.0
212.0468,760.0
212.1192,669.0
212.1917,728.0
212.264,719.0
212.3364,771.0
212.4088,688.0
212.4812,760.0
212.5536,712.0
212.626,769.0
212.6984,693.0
212.7708,742.0
212.8432,716.0
212.9155,808.0
212.9879,686.0
213.0603,768.0
213.1326,697.0
213.205,766.0
213.2774,680.0
213.3498,753.0
213.4221,698.0
213.4945,728.0
213.5668,655.0
213.6392,766.0
213.7115,692.0
213.7839,757.0
213.8562,684.0
213.9286,745.0
214.0009,679.0
214.0732,784.0
214.1456,724.0
214.2179,790.0
214.2903,702.0
214.3626,761.0
214.4349,686.0
214.5072,722.0
214.5796,735.0
214.6519,775.0
214.7242,710.0
214.7965,787.0
214.8688,703.0
214.9411,727.0
215.0134,691.0
215.0857,795.0
215.158,705.0
215.2303,763.0
215.3026,755.0
215.3749,769.0
215.4472,713.0
215.5195,798.0
215.5918,681.0
215.6641,787.0
215.7363,702.0
215.8086,782.0
215.8809,689.0
215.9532,714.0
216.0254,691.0
216.0977,759.0
216.17,669.0
216.2422,766.0
216.3145,723.0
216.3867,811.0
216.459,719.0
216.5313,754.0
216.6035,691.0
216.6758,791.0
216.748,713.0
216.8202,759.0
216.8925,719.0
216.9647,771.0
217.037,709.0
217.1092,802.0
217.1814,675.0
217.2536,801.0
217.3259,679.0
217.3981,800.0
217.4703,717.0
217.5425,775.0
217.6147,710.0
217.687,769.0
217.7592,732.0
217.8314,810.0
217.9035,723.0
217.9758,777.0
218.048,754.0
218.1201,794.0
218.1924,731.0
218.2645,815.0
218.3367,672.0
218.4089,771.0
218.4811,711.0
218.5533,785.0
218.6255,673.0
218.6976,782.0
218.7698,739.0
218.842,771.0
218.9142,702.0
218.9863,752.0
219.0585,727.0
219.1306,763.0
219.2028,713.0
219.2749,763.0
219.3471,728.0
219.4193,815.0
219.4914,705.0
219.5636,778.0
219.6357,743.0
219.7078,810.0
219.78,721.0
219.8521,790.0
219.9242,761.0
219.9964,807.0
220.0685,767.0
220.1406,830.0
220.2128,753.0
220.2849,786.0
220.357,745.0
220.4291,825.0
220.5012,723.0
220.5733,808.0
220.6454,747.0
220.7175,826.0
220.7896,774.0
220.8617,847.0
220.9338,736.0
221.0059,797.0
221.078,721.0
221.1501,821.0
221.2222,767.0
221.2943,888.0
221.3663,708.0
221.4384,802.0
221.5105,752.0
221.5826,797.0
221.6546,746.0
221.7267,796.0
221.7988,777.0
221.8708,814.0
221.9429,764.0
222.015,791.0
222.087,774.0
222.1591,822.0
222.2311,741.0
222.3032,846.0
222.3752,745.0
222.4473,855.0
222.5193,737.0
222.5913,776.0
222.6634,729.0
222.7354,794.0
222.8074,733.0
222.8795,842.0
222.9515,702.0
223.0235,782.0
223.0955,751.0
223.1675,806.0
223.2395,743.0
223.3116,839.0
223.3836,711.0
223.4556,831.0
223.5276,755.0
223.5996,825.0
223.6716,755.0
223.7436,821.0
223.8156,717.0
223.8876,863.0
223.9595,764.0
224.0315,781.0
224.1035,784.0
224.1755,794.0
224.2475,741.0
224.3195,848.0
224.3914,794.0
224.4634,868.0
224.5354,727.0
224.6073,784.0
224.6793,770.0
224.7512,807.0
224.8232,738.0
224.8952,875.0
224.9671,742.0
225.0391,831.0
225.111,759.0
225.1829,849.0
225.2549,791.0
225.3268,833.0
225.3988,787.0
225.4707,835.0
225.5426,806.0
225.6146,855.0
225.6865,776.0
225.7584,825.0
225.8303,803.0
225.9022,847.0
225.9742,827.0
226.0461,858.0
226.118,760.0
226.1899,857.0
226.2618,777.0
226.3337,867.0
226.4056,821.0
226.4775,898.0
226.5494,758.0
226.6213,822.0
226.6932,787.0
226.7651,832.0
226.8369,775.0
226.9088,841.0
226.9807,773.0
227.0526,847.0
227.1245,744.0
227.1963,815.0
227.2682,776.0
227.3401,888.0
227.4119,759.0
227.4838,844.0
227.5556,813.0
227.6275,866.0
227.6993,788.0
227.7712,825.0
227.8431,772.0
227.9149,836.0
227.9867,751.0
228.0586,808.0
228.1304,758.0
228.2023,828.0
228.2741,822.0
228.3459,889.0
228.4177,774.0
228.4896,845.0
228.5614,750.0
228.6332,819.0
228.705,766.0
228.7768,877.0
228.8486,804.0
228.9205,839.0
228.9923,787.0
229.0641,871.0
229.1359,838.0
229.2077,870.0
229.2794,819.0
229.3513,899.0
229.423,897.0
229.4948,1059.0
229.5666,1065.0
229.6384,1163.0
229.7102,1165.0
229.782,1044.0
229.8537,929.0
229.9255,864.0
229.9973,853.0
230.069,840.0
230.1408,768.0
230.2126,834.0
230.2843,704.0
230.3561,828.0
230.4278,732.0
230.4996,798.0
230.5713,685.0
230.6431,848.0
230.7148,754.0
230.7866,758.0
230.8583,751.0
230.93,810.0
231.0018,780.0
231.0735,807.0
231.1452,717.0
231.2169,805.0
231.2887,733.0
231.3604,850.0
231.4321,773.0
231.5038,794.0
231.5755,798.0
231.6472,786.0
231.7189,743.0
231.7906,836.0
231.8624,779.0
231.9341,851.0
232.0057,761.0
232.0774,837.0
232.1491,726.0
232.2208,835.0
232.2925,699.0
232.3642,820.0
232.4359,756.0
232.5075,855.0
232.5792,769.0
232.6509,859.0
232.7225,772.0
232.7942,850.0
232.8659,761.0
232.9375,788.0
233.0092,791.0
233.0809,812.0
233.1525,723.0
233.2242,824.0
233.2958,778.0
233.3675,785.0
233.4391,770.0
233.5107,803.0
233.5824,726.0
233.654,789.0
233.7256,758.0
233.7973,825.0
233.8689,729.0
233.9405,825.0
234.0121,804.0
234.0838,803.0
234.1554,782.0
234.227,848.0
234.2986,744.0
234.3702,808.0
234.4418,701.0
234.5134,835.0
234.585,778.0
234.6566,794.0
234.7282,724.0
234.7998,816.0
234.8714,737.0
234.943,817.0
235.0146,713.0
235.0862,782.0
235.1577,752.0
235.2293,756.0
235.3009,742.0
235.3725,832.0
235.444,751.0
235.5156,780.0
235.5872,726.0
235.6587,797.0
235.7303,788.0
235.8018,839.0
235.8734,792.0
235.9449,845.0
236.0165,750.0
236.088,864.0
236.1596,761.0
236.2311,804.0
236.3026,764.0
236.3742,845.0
236.4457,752.0
236.5172,802.0
236.5887,802.0
236.6603,816.0
236.7318,746.0
236.8033,850.0
236.8748,751.0
236.9464,831.0
237.0179,716.0
237.0894,845.0
237.1609,765.0
237.2324,809.0
237.3039,771.0
237.3754,846.0
237.4469,738.0
237.5184,842.0
237.5898,786.0
237.6613,827.0
237.7328,783.0
237.8043,857.0
237.8758,783.0
237.9472,823.0
238.0187,751.0
238.0902,853.0
238.1617,804.0
238.2331,871.0
238.3046,807.0
238.376,843.0
238.4475,784.0
238.519,826.0
238.5904,769.0
238.6618,861.0
238.7333,765.0
238.8047,874.0
238.8762,797.0
238.9476,860.0
239.0191,820.0
239.0905,874.0
239.1619,731.0
239.2334,842.0
239.3048,746.0
239.3762,872.0
239.4476,787.0
239.519,847.0
239.5904,797.0
239.6619,885.0
239.7333,788.0
239.8047,851.0
239.8761,757.0
239.9475,884.0
240.0189,776.0
240.0903,902.0
240.1617,821.0
240.233,842.0
240.3044,748.0
240.3758,860.0
240.4472,739.0
240.5186,850.0
240.59,757.0
240.6613,852.0
240.7327,780.0
240.8041,837.0
240.8754,819.0
240.9468,868.0
241.0181,734.0
241.0895,846.0
241.1609,802.0
241.2322,845.0
241.3036,764.0
241.3749,849.0
241.4462,779.0
241.5176,863.0
241.5889,764.0
241.6602,868.0
241.7316,778.0
241.8029,857.0
241.8743,781.0
241.9456,850.0
242.0169,786.0
242.0882,857.0
242.1595,802.0
242.2309,836.0
242.3022,781.0
242.3735,867.0
242.4448,744.0
242.5161,871.0
242.5874,820.0
242.6587,846.0
242.73,805.0
242.8013,848.0
242.8726,757.0
242.9438,868.0
243.0151,769.0
243.0864,840.0
243.1577,742.0
243.229,880.0
243.3002,778.0
243.3715,842.0
243.4428,790.0
243.5141,839.0
243.5853,792.0
243.6566,843.0
243.7278,763.0
243.7991,857.0
243.8703,799.0
243.9416,830.0
244.0128,799.0
244.0841,833.0
244.1553,760.0
244.2266,897.0
244.2978,773.0
244.369,855.0
244.4402,820.0
244.5115,858.0
244.5827,790.0
244.6539,858.0
244.7251,785.0
244.7964,862.0
244.8676,781.0
244.9388,875.0
245.01,793.0
245.0812,842.0
245.1524,785.0
245.2236,862.0
245.2948,819.0
245.366,878.0
245.4372,703.0
245.5084,850.0
245.5796,753.0
245.6507,837.0
245.7219,785.0
245.7931,825.0
245.8643,751.0
245.9355,844.0
246.0066,746.0
246.0778,844.0
246.149,762.0
246.2201,821.0
246.2913,728.0
246.3624,811.0
246.4336,720.0
246.5047,845.0
246.5759,732.0
246.647,820.0
246.7182,757.0
246.7893,812.0
246.8605,766.0
246.9316,844.0
247.0027,718.0
247.0739,826.0
247.145,752.0
247.2161,781.0
247.2872,740.0
247.3584,823.0
247.4295,781.0
247.5006,878.0
247.5717,776.0
247.6428,912.0
247.7139,917.0
247.785,972.0
247.8561,1003.0
247.9272,1170.0
247.9983,1046.0
248.0694,1018.0
248.1405,880.0
248.2116,903.0
248.2827,827.0
248.3537,883.0
248.4248,785.0
248.4959,830.0
248.5669,801.0
248.638,851.0
248.7091,719.0
248.7802,880.0
248.8512,773.0
248.9223,856.0
248.9933,767.0
249.0644,781.0
249.1354,764.0
249.2065,834.0
249.2775,776.0
249.3486,823.0
249.4196,728.0
249.4906,852.0
249.5617,773.0
249.6327,814.0
249.7037,765.0
249.7747,854.0
249.8458,746.0
249.9168,860.0
249.9878,781.0
250.0588,834.0
250.1298,749.0
250.2009,837.0
250.2719,794.0
250.3429,814.0
250.4138,761.0
250.4849,880.0
250.5558,744.0
250.6268,843.0
250.6978,791.0
250.7688,842.0
250.8398,798.0
250.9108,936.0
250.9818,857.0
251.0527,867.0
251.1237,865.0
251.1947,917.0
251.2657,854.0
251.3366,924.0
251.4076,747.0
251.4785,850.0
251.5495,772.0
251.6205,859.0
251.6914,786.0
251.7623,863.0
251.8333,779.0
251.9042,844.0
251.9752,783.0
252.0461,849.0
252.1171,733.0
252.188,821.0
252.2589,756.0
252.3298,821.0
252.4008,706.0
252.4717,852.0
252.5426,740.0
252.6135,838.0
252.6844,746.0
252.7553,835.0
252.8262,718.0
252.8971,822.0
252.9681,781.0
253.039,863.0
253.1098,775.0
253.1808,839.0
253.2516,755.0
253.3225,820.0
253.3934,755.0
253.4643,805.0
253.5352,735.0
253.606,793.0
253.6769,782.0
253.7478,857.0
253.8187,838.0
253.8895,803.0
253.9604,720.0
254.0312,803.0
254.1021,734.0
254.173,815.0
254.2438,709.0
254.3147,852.0
254.3855,759.0
254.4563,783.0
254.5272,729.0
254.598,846.0
254.6689,746.0
254.7397,821.0
254.8105,735.0
254.8813,832.0
254.9522,771.0
255.023,841.0
255.0938,708.0
255.1646,849.0
255.2354,740.0
255.3062,869.0
255.3771,700.0
255.4479,894.0
255.5187,758.0
255.5894,822.0
255.6603,778.0
255.731,864.0
255.8018,737.0
255.8726,857.0
255.9434,775.0
256.0142,845.0
256.085,738.0
256.1558,846.0
256.2265,782.0
256.2973,863.0
256.3681,778.0
256.4388,881.0
256.5096,745.0
256.5804,785.0
256.6511,743.0
256.7219,857.0
256.7926,754.0
256.8634,830.0
256.9341,798.0
257.0049,853.0
257.0756,744.0
257.1463,813.0
257.2171,799.0
257.2878,841.0
257.3585,780.0
257.4292,812.0
257.5,768.0
257.5707,839.0
257.6414,772.0
257.7122,778.0
257.7828,712.0
257.8535,834.0
257.9243,723.0
257.995,844.0
258.0657,765.0
258.1364,768.0
258.2071,749.0
258.2777,803.0
258.3484,736.0
258.4191,862.0
258.4898,752.0
258.5605,844.0
258.6312,753.0
258.7018,832.0
258.7725,737.0
258.8432,826.0
258.9139,722.0
258.9845,804.0
259.0552,706.0
259.1259,832.0
259.1965,739.0
259.2672,825.0
259.3378,744.0
259.4085,829.0
259.4791,734.0
259.5497,787.0
259.6204,720.0
259.691,844.0
259.7617,722.0
259.8323,833.0
259.9029,739.0
259.9735,816.0
260.0442,752.0
260.1147,759.0
260.1854,736.0
260.256,835.0
260.3267,730.0
260.3972,864.0
260.4678,765.0
260.5384,826.0
260.6091,723.0
260.6796,849.0
260.7502,728.0
260.8208,804.0
260.8914,703.0
260.962,793.0
261.0326,760.0
261.1032,808.0
261.1737,722.0
261.2444,849.0
261.3149,778.0
261.3854,810.0
261.456,756.0
261.5266,837.0
261.5971,742.0
261.6677,855.0
261.7383,795.0
261.8088,832.0
261.8794,726.0
261.9499,831.0
262.0205,741.0
262.091,831.0
262.1615,720.0
262.2321,851.0
262.3026,801.0
262.3731,860.0
262.4437,761.0
262.5142,854.0
262.5847,811.0
262.6552,824.0
262.7257,776.0
262.7962,870.0
262.8668,781.0
262.9373,819.0
263.0078,778.0
263.0783,840.0
263.1488,735.0
263.2193,824.0
263.2898,741.0
263.3603,873.0
263.4307,754.0
263.5012,879.0
263.5717,786.0
263.6422,830.0
263.7127,808.0
263.7831,853.0
263.8536,757.0
263.9241,855.0
263.9945,797.0
264.065,892.0
264.1354,760.0
264.2059,810.0
264.2764,757.0
264.3468,838.0
264.4173,754.0
264.4877,860.0
264.5581,751.0
264.6286,870.0
264.699,807.0
264.7694,869.0
264.8399,762.0
264.9103,825.0
264.9807,745.0
265.0511,805.0
265.1216,740.0
265.192,847.0
265.2625,720.0
265.3328,864.0
265.4032,780.0
265.4736,800.0
265.5441,759.0
265.6144,794.0
265.6848,720.0
265.7552,836.0
265.8256,754.0
265.896,809.0
265.9664,727.0
266.0368,866.0
266.1071,738.0
266.1775,803.0
266.2479,752.0
266.3183,781.0
266.3886,771.0
266.459,789.0
266.5294,707.0
266.5998,860.0
266.6701,730.0
266.7404,805.0
266.8108,750.0
266.8812,807.0
266.9515,760.0
267.0219,807.0
267.0922,740.0
267.1625,817.0
267.2328,743.0
267.3032,844.0
267.3735,719.0
267.4438,766.0
267.5142,716.0
267.5845,791.0
267.6548,784.0
267.7251,807.0
267.7954,721.0
267.8657,784.0
267.936,723.0
268.0063,806.0
268.0766,745.0
268.1469,828.0
268.2172,720.0
268.2875,781.0
268.3578,725.0
268.4281,818.0
268.4984,734.0
268.5686,762.0
268.6389,728.0
268.7092,794.0
268.7794,755.0
268.8498,807.0
268.92,701.0
268.9902,830.0
269.0605,707.0
269.1308,763.0
269.201,753.0
269.2713,792.0
269.3415,681.0
269.4118,847.0
269.482,715.0
269.5523,824.0
269.6225,722.0
269.6927,832.0
269.7629,737.0
269.8332,795.0
269.9034,734.0
269.9736,793.0
270.0439,728.0
270.114,792.0
270.1843,745.0
270.2545,787.0
270.3247,750.0
270.3949,828.0
270.4651,720.0
270.5353,818.0
270.6055,743.0
270.6757,793.0
270.7459,736.0
270.8161,792.0
270.8863,741.0
270.9564,829.0
271.0266,780.0
271.0968,838.0
271.167,750.0
271.2371,812.0
271.3073,722.0
271.3775,830.0
271.4476,741.0
271.5178,819.0
271.588,816.0
271.6581,793.0
271.7282,743.0
271.7984,840.0
271.8685,749.0
271.9387,814.0
272.0088,768.0
272.0789,847.0
272.1491,772.0
272.2192,818.0
272.2893,761.0
272.3595,844.0
272.4296,783.0
272.4997,898.0
272.5698,739.0
272.64,908.0
272.7101,800.0
272.7802,827.0
272.8503,779.0
272.9204,875.0
272.9904,762.0
273.0605,886.0
273.1306,781.0
273.2007,847.0
273.2708,747.0
273.3409,831.0
273.411,767.0
273.481,838.0
273.5511,787.0
273.6212,837.0
273.6913,797.0
273.7614,845.0
273.8314,777.0
273.9015,875.0
273.9715,786.0
274.0416,860.0
274.1116,836.0
274.1817,848.0
274.2517,789.0
274.3217,903.0
274.3918,780.0
274.4619,896.0
274.5319,742.0
274.602,842.0
274.6719,873.0
274.742,858.0
274.812,854.0
274.882,869.0
274.952,783.0
275.0221,902.0
275.0921,791.0
275.1621,865.0
275.2321,752.0
275.3021,849.0
275.3721,747.0
275.4421,857.0
275.5121,756.0
275.5821,930.0
275.6521,760.0
275.722,825.0
275.792,790.0
275.862,848.0
275.932,755.0
276.002,798.0
276.0719,814.0
276.1418,833.0
276.2119,814.0
276.2818,883.0
276.3517,751.0
276.4218,867.0
276.4917,782.0
276.5616,807.0
276.6316,761.0
276.7015,857.0
276.7715,801.0
276.8414,805.0
276.9113,701.0
276.9813,834.0
277.0512,762.0
277.1211,838.0
277.191,790.0
277.261,830.0
277.3309,771.0
277.4008,843.0
277.4707,805.0
277.5406,875.0
277.6105,773.0
277.6804,829.0
277.7503,779.0
277.8202,842.0
277.8901,749.0
277.96,902.0
278.0299,750.0
278.0998,859.0
278.1697,777.0
278.2396,812.0
278.3094,753.0
278.3793,843.0
278.4492,739.0
278.519,816.0
278.5889,760.0
278.6588,884.0
278.7286,771.0
278.7985,811.0
278.8683,810.0
278.9382,862.0
279.0081,748.0
279.0779,811.0
279.1477,737.0
279.2176,863.0
279.2874,787.0
279.3572,872.0
279.4271,763.0
279.4969,850.0
279.5667,755.0
279.6365,905.0
279.7063,800.0
279.7762,877.0
279.846,781.0
279.9158,905.0
279.9856,768.0
280.0554,846.0
280.1252,836.0
280.195,828.0
280.2648,764.0
280.3346,864.0
280.4044,813.0
280.4742,878.0
280.544,820.0
280.6137,922.0
280.6835,824.0
280.7533,864.0
280.8231,807.0
280.8928,854.0
280.9626,839.0
281.0323,910.0
281.1021,792.0
281.1719,937.0
281.2416,833.0
281.3114,877.0
281.3811,795.0
281.4509,878.0
281.5206,790.0
281.5904,900.0
281.6601,762.0
281.7299,907.0
281.7996,821.0
281.8693,907.0
281.939,834.0
282.0088,869.0
282.0784,755.0
282.1482,884.0
282.2179,821.0
282.2876,899.0
282.3573,794.0
282.427,897.0
282.4967,864.0
282.5664,838.0
282.6361,829.0
282.7058,861.0
282.7755,780.0
282.8452,862.0
282.9149,821.0
282.9845,888.0
283.0542,820.0
283.1239,872.0
283.1936,811.0
283.2632,926.0
283.3329,794.0
283.4026,862.0
283.4722,786.0
283.5419,911.0
283.6115,795.0
283.6812,933.0
283.7508,867.0
283.8205,943.0
283.8901,833.0
283.9597,871.0
284.0294,828.0
284.099,903.0
284.1686,811.0
284.2383,898.0
284.3079,785.0
284.3775,840.0
284.4471,795.0
284.5168,887.0
284.5864,785.0
284.656,862.0
284.7256,784.0
284.7952,857.0
284.8648,789.0
284.9344,894.0
285.004,787.0
285.0736,918.0
285.1432,770.0
285.2128,876.0
285.2823,767.0
285.3519,867.0
285.4215,783.0
285.4911,827.0
285.5606,768.0
285.6302,841.0
285.6998,759.0
285.7693,861.0
285.8389,777.0
285.9084,852.0
285.978,762.0
286.0475,785.0
286.1171,754.0
286.1866,854.0
286.2562,756.0
286.3257,843.0
286.3952,792.0
286.4648,861.0
286.5343,761.0
286.6039,852.0
286.6733,743.0
286.7429,772.0
286.8124,746.0
286.8819,846.0
286.9514,756.0
287.0209,879.0
287.0904,728.0
287.1599,897.0
287.2294,827.0
287.299,870.0
287.3684,747.0
287.4379,864.0
287.5074,728.0
287.5769,843.0
287.6464,805.0
287.7159,867.0
287.7853,742.0
287.8548,834.0
287.9243,769.0
287.9937,862.0
288.0632,789.0
288.1327,867.0
288.2021,773.0
288.2716,830.0
288.341,789.0
288.4105,842.0
288.4799,767.0
288.5493,838.0
288.6188,749.0
288.6882,846.0
288.7577,787.0
288.8271,861.0
288.8965,765.0
288.9659,880.0
289.0354,777.0
289.1048,851.0
289.1742,782.0
289.2436,844.0
289.313,762.0
289.3824,872.0
289.4518,825.0
289.5212,871.0
289.5906,692.0
289.66,869.0
289.7294,792.0
289.7988,864.0
289.8682,793.0
289.9376,848.0
290.007,806.0
290.0764,864.0
290.1457,808.0
290.2151,878.0
290.2844,778.0
290.3538,879.0
290.4232,812.0
290.4925,840.0
290.5619,791.0
290.6312,853.0
290.7006,781.0
290.7699,882.0
290.8393,786.0
290.9086,853.0
290.978,810.0
291.0473,850.0
291.1166,799.0
291.1859,839.0
291.2553,788.0
291.3246,895.0
291.3939,815.0
291.4632,879.0
291.5325,757.0
291.6018,882.0
291.6712,783.0
291.7405,895.0
291.8098,785.0
291.8791,916.0
291.9484,789.0
292.0176,893.0
292.0869,811.0
292.1562,850.0
292.2255,790.0
292.2948,886.0
292.3641,800.0
292.4334,875.0
292.5026,819.0
292.5719,903.0
292.6412,777.0
292.7104,906.0
292.7797,829.0
292.8489,911.0
292.9182,767.0
292.9875,860.0
293.0567,789.0
293.1259,906.0
293.1952,799.0
293.2644,921.0
293.3336,796.0
293.4029,908.0
293.4721,781.0
293.5413,899.0
293.6106,812.0
293.6798,884.0
293.749,780.0
293.8182,906.0
293.8875,789.0
293.9566,882.0
294.0259,810.0
294.0951,904.0
294.1642,809.0
294.2334,894.0
294.3026,809.0
294.3718,869.0
294.441,854.0
294.5102,938.0
294.5794,825.0
294.6485,894.0
294.7177,792.0
294.7869,879.0
294.8561,777.0
294.9253,916.0
294.9944,775.0
295.0636,896.0
295.1327,835.0
295.2019,882.0
295.271,828.0
295.3402,901.0
295.4093,802.0
295.4785,909.0
295.5476,779.0
295.6168,902.0
295.6859,836.0
295.755,879.0
295.8241,822.0
295.8932,887.0
295.9623,787.0
296.0315,864.0
296.1006,763.0
296.1697,887.0
296.2388,821.0
296.3079,849.0
296.377,840.0
296.4461,911.0
296.5152,787.0
296.5843,926.0
296.6534,804.0
296.7225,902.0
296.7916,803.0
296.8606,917.0
296.9297,815.0
296.9988,862.0
297.0679,781.0
297.137,887.0
297.206,802.0
297.2751,883.0
297.3441,803.0
297.4132,888.0
297.4823,791.0
297.5513,881.0
297.6204,815.0
297.6894,919.0
297.7584,810.0
297.8275,945.0
297.8965,816.0
297.9655,873.0
298.0346,841.0
298.1036,893.0
298.1726,832.0
298.2417,902.0
298.3106,790.0
298.3797,918.0
298.4487,822.0
298.5177,898.0
298.5867,843.0
298.6557,907.0
298.7247,815.0
298.7937,925.0
298.8627,855.0
298.9317,921.0
299.0007,815.0
299.0696,837.0
299.1386,804.0
299.2076,867.0
299.2766,852.0
299.3456,893.0
299.4145,848.0
299.4835,876.0
299.5524,839.0
299.6214,894.0
299.6903,802.0
299.7593,936.0
299.8282,804.0
299.8972,921.0
299.9661,883.0
300.0351,903.0
300.104,830.0
300.173,926.0
300.2419,790.0
300.3108,949.0
300.3797,815.0
300.4487,945.0
300.5176,781.0
300.5865,921.0
300.6554,802.0
300.7243,879.0
300.7932,806.0
300.8621,918.0
300.931,884.0
300.9999,883.0
301.0688,821.0
301.1377,913.0
301.2066,829.0
301.2755,924.0
301.3444,813.0
301.4132,940.0
301.4821,784.0
301.551,948.0
301.6199,872.0
301.6887,922.0
301.7576,806.0
301.8265,936.0
301.8953,850.0
301.9642,896.0
302.033,815.0
302.1019,925.0
302.1707,808.0
302.2396,929.0
302.3084,840.0
302.3772,911.0
302.4461,824.0
302.5149,914.0
302.5837,836.0
302.6526,902.0
302.7214,813.0
302.7902,914.0
302.859,831.0
302.9278,898.0
302.9966,871.0
303.0654,962.0
303.1342,787.0
303.203,901.0
303.2718,845.0
303.3406,951.0
303.4094,847.0
303.4781,893.0
303.547,852.0
303.6158,872.0
303.6845,819.0
303.7533,925.0
303.8221,830.0
303.8908,932.0
303.9596,822.0
304.0284,909.0
304.0971,864.0
304.1659,933.0
304.2346,844.0
304.3034,885.0
304.3721,842.0
304.4409,904.0
304.5096,826.0
304.5784,898.0
304.6471,794.0
304.7158,909.0
304.7845,848.0
304.8533,883.0
304.922,833.0
304.9907,859.0
305.0594,808.0
305.1281,928.0
305.1969,805.0
305.2656,914.0
305.3343,805.0
305.403,896.0
305.4717,832.0
305.5403,896.0
305.609,819.0
305.6778,896.0
305.7464,810.0
305.8151,938.0
305.8838,792.0
305.9525,923.0
306.0211,804.0
306.0898,903.0
306.1585,837.0
306.2271,864.0
306.2958,849.0
306.3645,910.0
306.4331,807.0
306.5017,884.0
306.5704,840.0
306.6391,898.0
306.7077,797.0
306.7763,901.0
306.845,838.0
306.9136,914.0
306.9822,825.0
307.0508,866.0
307.1195,840.0
307.1881,887.0
307.2567,825.0
307.3253,910.0
307.3939,851.0
307.4625,930.0
307.5312,769.0
307.5998,952.0
307.6684,789.0
307.7369,871.0
307.8055,793.0
307.8741,856.0
307.9427,828.0
308.0113,882.0
308.0799,777.0
308.1484,886.0
308.217,806.0
308.2856,910.0
308.3542,807.0
308.4227,900.0
308.4913,795.0
308.5598,911.0
308.6284,813.0
308.6969,909.0
308.7655,856.0
308.834,917.0
308.9026,839.0
308.9711,872.0
309.0396,776.0
309.1082,900.0
309.1767,768.0
309.2452,905.0
309.3138,822.0
309.3823,898.0
309.4508,804.0
309.5193,872.0
309.5878,822.0
309.6563,925.0
309.7249,819.0
309.7933,896.0
309.8618,842.0
309.9303,905.0
309.9988,838.0
310.0673,939.0
310.1358,830.0
310.2043,869.0
310.2728,840.0
310.3412,883.0
310.4097,801.0
310.4781,879.0
310.5466,842.0
310.6151,888.0
310.6836,895.0
310.752,870.0
310.8205,849.0
310.8889,889.0
310.9574,774.0
311.0258,893.0
311.0943,795.0
311.1627,942.0
311.2311,804.0
311.2996,905.0
311.368,828.0
311.4364,853.0
311.5049,793.0
311.5733,886.0
311.6417,784.0
311.7101,880.0
311.7785,796.0
311.8469,890.0
311.9153,839.0
311.9837,888.0
312.0521,826.0
312.1205,870.0
312.1889,779.0
312.2573,899.0
312.3257,794.0
312.3941,897.0
312.4624,803.0
312.5308,855.0
312.5992,765.0
312.6675,883.0
312.7359,810.0
312.8043,869.0
312.8727,797.0
312.941,902.0
313.0093,803.0
313.0777,801.0
313.1461,814.0
313.2144,846.0
313.2827,785.0
313.3511,881.0
313.4194,788.0
313.4877,839.0
313.5561,759.0
313.6244,886.0
313.6927,768.0
313.761,834.0
313.8294,731.0
313.8977,821.0
313.966,735.0
314.0343,818.0
314.1026,771.0
314.1709,919.0
314.2392,818.0
314.3075,827.0
314.3758,777.0
314.4441,847.0
314.5124,809.0
314.5806,879.0
314.6489,783.0
314.7172,906.0
314.7855,787.0
314.8537,844.0
314.922,761.0
314.9903,885.0
315.0585,729.0
315.1268,917.0
315.195,788.0
315.2633,898.0
315.3315,854.0
315.3998,882.0
315.468,786.0
315.5362,826.0
315.6045,773.0
315.6727,851.0
315.7409,795.0
315.8092,907.0
315.8774,797.0
315.9456,882.0
316.0138,785.0
316.082,893.0
316.1502,763.0
316.2184,884.0
316.2867,819.0
316.3549,892.0
316.423,852.0
316.4912,925.0
316.5594,810.0
316.6276,931.0
316.6958,834.0
316.764,876.0
316.8322,840.0
316.9003,925.0
316.9685,795.0
317.0367,903.0
317.1049,848.0
317.173,918.0
317.2411,886.0
317.3093,889.0
317.3774,817.0
317.4456,902.0
317.5137,849.0
317.5819,915.0
317.65,850.0
317.7182,918.0
317.7863,853.0
317.8545,924.0
317.9225,863.0
317.9907,909.0
318.0588,837.0
318.1269,948.0
318.195,900.0
318.2631,933.0
318.3312,808.0
318.3994,896.0
318.4675,828.0
318.5355,888.0
318.6036,830.0
318.6717,910.0
318.7398,862.0
318.8079,906.0
318.876,836.0
318.9441,931.0
319.0121,835.0
319.0802,933.0
319.1483,883.0
319.2164,908.0
319.2844,841.0
319.3525,893.0
319.4205,818.0
319.4886,943.0
319.5566,838.0
319.6247,916.0
319.6927,842.0
319.7608,983.0
319.8288,867.0
319.8968,927.0
319.9648,854.0
320.0329,963.0
320.1009,825.0
320.1689,921.0
320.237,877.0
320.305,919.0
320.373,841.0
320.441,910.0
320.509,818.0
320.577,922.0
320.645,855.0
320.713,932.0
320.781,823.0
320.849,865.0
320.917,793.0
320.985,933.0
321.0529,864.0
321.1209,929.0
321.1889,834.0
321.2568,914.0
321.3248,868.0
321.3928,930.0
321.4608,822.0
321.5287,907.0
321.5966,785.0
321.6646,924.0
321.7325,813.0
321.8005,913.0
321.8684,811.0
321.9364,924.0
322.0043,850.0
322.0722,924.0
322.1401,846.0
322.2081,921.0
322.276,878.0
322.344,933.0
322.4119,878.0
322.4797,913.0
322.5477,846.0
322.6156,907.0
322.6835,828.0
322.7514,965.0
322.8193,830.0
322.8871,911.0
322.955,883.0
323.0229,924.0
323.0908,852.0
323.1588,921.0
323.2266,841.0
323.2945,899.0
323.3623,824.0
323.4302,934.0
323.4981,832.0
323.5659,948.0
323.6338,881.0
323.7016,896.0
323.7695,885.0
323.8373,932.0
323.9052,884.0
323.973,928.0
324.0409,868.0
324.1087,954.0
324.1765,886.0
324.2444,952.0
324.3122,866.0
324.38,944.0
324.4479,813.0
324.5157,937.0
324.5834,876.0
324.6512,957.0
324.7191,926.0
324.7869,924.0
324.8547,862.0
324.9225,948.0
324.9903,884.0
325.058,999.0
325.1259,848.0
325.1936,939.0
325.2614,862.0
325.3292,958.0
325.397,875.0
325.4647,914.0
325.5325,899.0
325.6002,913.0
325.668,873.0
325.7358,919.0
325.8036,855.0
325.8713,933.0
325.939,834.0
326.0068,940.0
326.0745,839.0
326.1422,903.0
326.21,864.0
326.2777,935.0
326.3455,852.0
326.4132,933.0
326.4809,875.0
326.5486,938.0
326.6164,859.0
326.6841,960.0
326.7518,854.0
326.8195,949.0
326.8872,863.0
326.9549,983.0
327.0226,810.0
327.0903,945.0
327.158,860.0
327.2256,915.0
327.2933,861.0
327.361,967.0
327.4287,870.0
327.4964,980.0
327.5641,841.0
327.6317,966.0
327.6994,843.0
327.767,963.0
327.8347,832.0
327.9023,942.0
327.97,851.0
328.0376,937.0
328.1053,881.0
328.1729,904.0
328.2406,863.0
328.3082,941.0
328.3759,884.0
328.4435,914.0
328.5111,824.0
328.5787,913.0
328.6463,864.0
328.7139,914.0
328.7816,859.0
328.8492,964.0
328.9168,826.0
328.9843,894.0
329.052,813.0
329.1196,899.0
329.1872,784.0
329.2548,913.0
329.3224,829.0
329.3899,878.0
329.4575,815.0
329.5251,918.0
329.5927,824.0
329.6602,924.0
329.7278,833.0
329.7953,923.0
329.8629,815.0
329.9305,922.0
329.998,810.0
330.0656,874.0
330.1331,833.0
330.2007,905.0
330.2682,797.0
330.3358,863.0
330.4033,823.0
330.4708,910.0
330.5383,814.0
330.6059,906.0
330.6734,833.0
330.7409,871.0
330.8084,821.0
330.876,905.0
330.9435,857.0
331.011,900.0
331.0784,781.0
331.1459,872.0
331.2134,796.0
331.2809,900.0
331.3484,816.0
331.4159,852.0
331.4834,790.0
331.5508,874.0
331.6183,824.0
331.6858,916.0
331.7533,880.0
331.8207,889.0
331.8882,817.0
331.9557,916.0
332.0231,834.0
332.0906,926.0
332.1581,796.0
332.2255,890.0
332.2929,768.0
332.3604,911.0
332.4278,785.0
332.4952,858.0
332.5627,815.0
332.6301,894.0
332.6975,811.0
332.7649,886.0
332.8323,831.0
332.8997,891.0
332.9672,813.0
333.0346,953.0
333.102,843.0
333.1694,913.0
333.2368,853.0
333.3042,902.0
333.3716,814.0
333.439,915.0
333.5063,844.0
333.5737,940.0
333.6411,827.0
333.7085,903.0
333.7758,829.0
333.8432,912.0
333.9106,796.0
333.9779,849.0
334.0453,775.0
334.1126,964.0
334.18,870.0
334.2473,906.0
334.3147,806.0
334.382,899.0
334.4494,868.0
334.5167,933.0
334.584,783.0
334.6514,915.0
334.7187,839.0
334.786,926.0
334.8533,828.0
334.9206,897.0
334.9879,837.0
335.0553,925.0
335.1226,787.0
335.1899,888.0
335.2572,814.0
335.3245,900.0
335.3918,824.0
335.459,939.0
335.5263,816.0
335.5936,895.0
335.6609,796.0
335.7282,930.0
335.7954,817.0
335.8627,962.0
335.93,865.0
335.9973,908.0
336.0645,831.0
336.1318,924.0
336.199,821.0
336.2662,926.0
336.3335,824.0
336.4008,933.0
336.468,776.0
336.5352,958.0
336.6024,833.0
336.6697,910.0
336.7369,856.0
336.8041,892.0
336.8714,779.0
336.9386,934.0
337.0058,807.0
337.073,920.0
337.1402,804.0
337.2074,893.0
337.2746,853.0
337.3418,877.0
337.409,836.0
337.4762,870.0
337.5434,814.0
337.6106,910.0
337.6777,818.0
337.7449,902.0
337.8121,807.0
337.8792,871.0
337.9464,817.0
338.0135,889.0
338.0807,807.0
338.1479,913.0
338.2151,833.0
338.2822,934.0
338.3493,814.0
338.4165,885.0
338.4836,816.0
338.5508,912.0
338.6179,777.0
338.6851,897.0
338.7521,846.0
338.8193,910.0
338.8864,826.0
338.9535,892.0
339.0206,860.0
339.0878,869.0
339.1548,839.0
339.222,919.0
339.289,834.0
339.3561,942.0
339.4233,800.0
339.4904,921.0
339.5574,835.0
339.6245,939.0
339.6916,815.0
339.7587,886.0
339.8257,812.0
339.8929,915.0
339.9599,805.0
340.0269,893.0
340.094,815.0
340.1611,898.0
340.2281,773.0
340.2952,872.0
340.3622,800.0
340.4293,861.0
340.4963,793.0
340.5633,888.0
340.6304,796.0
340.6974,852.0
340.7645,808.0
340.8315,866.0
340.8985,768.0
340.9655,912.0
341.0325,786.0
341.0995,848.0
341.1665,829.0
341.2335,886.0
341.3005,836.0
341.3675,919.0
341.4345,800.0
341.5015,874.0
341.5685,807.0
341.6355,896.0
341.7025,823.0
341.7694,912.0
341.8364,805.0
341.9034,923.0
341.9704,842.0
342.0373,907.0
342.1043,790.0
342.1712,902.0
342.2382,759.0
342.3051,869.0
342.3721,799.0
342.4391,923.0
342.506,839.0
342.5729,863.0
342.6398,810.0
342.7068,891.0
342.7737,795.0
342.8406,893.0
342.9076,833.0
342.9745,889.0
343.0414,831.0
343.1083,875.0
343.1752,826.0
343.2421,916.0
343.309,810.0
343.3759,911.0
343.4428,861.0
343.5097,921.0
343.5766,822.0
343.6434,879.0
343.7104,847.0
343.7772,872.0
343.8441,830.0
343.9109,847.0
343.9778,833.0
344.0447,871.0
344.1116,834.0
344.1784,887.0
344.2453,803.0
344.3121,896.0
344.3789,813.0
344.4458,933.0
344.5127,813.0
344.5795,889.0
344.6463,800.0
344.7131,932.0
344.78,826.0
344.8468,934.0
344.9136,766.0
344.9805,908.0
345.0473,822.0
345.1141,941.0
345.1809,817.0
345.2477,937.0
345.3145,846.0
345.3813,919.0
345.4481,838.0
345.5149,918.0
345.5816,826.0
345.6484,921.0
345.7152,843.0
345.782,881.0
345.8488,813.0
345.9155,869.0
345.9823,822.0
346.049,927.0
346.1158,822.0
346.1826,946.0
346.2493,872.0
346.3161,957.0
346.3828,825.0
346.4496,937.0
346.5163,839.0
346.5831,888.0
346.6498,854.0
346.7165,920.0
346.7832,848.0
346.85,881.0
346.9167,800.0
346.9834,907.0
347.0501,782.0
347.1168,884.0
347.1835,850.0
347.2502,904.0
347.3169,827.0
347.3836,933.0
347.4503,820.0
347.517,961.0
347.5837,844.0
347.6504,907.0
347.717,836.0
347.7837,924.0
347.8504,828.0
347.9171,878.0
347.9837,825.0
348.0504,926.0
348.1171,832.0
348.1837,892.0
348.2504,863.0
348.317,928.0
348.3837,859.0
348.4503,920.0
348.5169,812.0
348.5836,927.0
348.6502,814.0
348.7169,905.0
348.7835,836.0
348.8501,916.0
348.9167,851.0
348.9833,909.0
349.0499,886.0
349.1165,896.0
349.1832,838.0
349.2498,955.0
349.3163,840.0
349.3829,917.0
349.4495,838.0
349.5161,861.0
349.5827,837.0
349.6493,990.0
349.7159,802.0
349.7824,971.0
349.849,856.0
349.9156,920.0
349.9821,879.0
350.0487,971.0
350.1153,897.0
350.1818,902.0
350.2484,868.0
350.3149,949.0
350.3814,829.0
350.448,926.0
350.5146,829.0
350.5811,908.0
350.6476,880.0
350.7141,950.0
350.7807,859.0
350.8472,952.0
350.9137,814.0
350.9802,942.0
351.0467,859.0
351.1132,943.0
351.1797,892.0
351.2462,953.0
351.3127,853.0
351.3792,949.0
351.4457,819.0
351.5122,932.0
351.5787,874.0
351.6451,942.0
351.7116,880.0
351.7781,979.0
351.8446,884.0
351.911,945.0
351.9775,859.0
352.044,966.0
352.1104,889.0
352.1769,960.0
352.2433,896.0
352.3098,987.0
352.3762,923.0
352.4427,938.0
352.5091,848.0
352.5755,958.0
352.642,861.0
352.7084,957.0
352.7748,873.0
352.8412,994.0
352.9077,905.0
352.9741,990.0
353.0405,872.0
353.1068,990.0
353.1732,899.0
353.2396,1038.0
353.306,877.0
353.3724,998.0
353.4388,935.0
353.5052,1013.0
353.5716,899.0
353.638,984.0
353.7043,933.0
353.7707,997.0
353.8371,912.0
353.9034,1053.0
353.9698,948.0
354.0362,994.0
354.1025,968.0
354.1689,1038.0
354.2352,960.0
354.3016,1028.0
354.3679,983.0
354.4342,1048.0
354.5005,961.0
354.5669,1052.0
354.6332,994.0
354.6996,1085.0
354.7659,964.0
354.8322,1038.0
354.8985,930.0
354.9648,1055.0
355.0311,922.0
355.0974,1068.0
355.1637,991.0
355.23,1053.0
355.2963,995.0
355.3625,1015.0
355.4289,954.0
355.4952,1053.0
355.5614,938.0
355.6277,1057.0
355.694,1005.0
355.7603,1035.0
355.8265,1006.0
355.8928,1067.0
355.959,966.0
356.0253,1068.0
356.0916,949.0
356.1578,1063.0
356.224,939.0
356.2903,1023.0
356.3565,988.0
356.4228,1036.0
356.489,915.0
356.5552,1017.0
356.6214,907.0
356.6876,1044.0
356.7539,920.0
356.8201,1027.0
356.8863,952.0
356.9525,1029.0
357.0187,886.0
357.0849,996.0
357.1511,891.0
357.2173,1042.0
357.2835,928.0
357.3497,1029.0
357.4158,962.0
357.482,997.0
357.5482,973.0
357.6144,1034.0
357.6805,1000.0
357.7467,1085.0
357.8128,1004.0
357.879,1112.0
357.9452,1091.0
358.0114,1218.0
358.0775,1172.0
358.1436,1308.0
358.2097,1302.0
358.2759,1491.0
358.342,1423.0
358.4082,1470.0
358.4743,1306.0
358.5404,1395.0
358.6065,1181.0
358.6726,1155.0
358.7387,1119.0
358.8049,1205.0
358.871,1135.0
358.9371,1250.0
359.0032,1103.0
359.0693,1063.0
359.1353,910.0
359.2014,963.0
359.2676,905.0
359.3336,935.0
359.3997,837.0
359.4658,925.0
359.5318,843.0
359.5979,936.0
359.664,815.0
359.7301,948.0
359.7961,840.0
359.8622,927.0
359.9282,830.0
359.9943,923.0
360.0603,808.0
360.1264,950.0
360.1924,859.0
360.2585,899.0
360.3244,851.0
360.3905,922.0
360.4565,865.0
360.5225,911.0
360.5885,859.0
360.6546,915.0
360.7206,785.0
360.7866,926.0
360.8526,813.0
360.9185,883.0
360.9846,827.0
361.0506,886.0
361.1165,797.0
361.1825,876.0
361.2485,831.0
361.3145,875.0
361.3805,837.0
361.4465,844.0
361.5124,776.0
361.5784,903.0
361.6443,819.0
361.7103,904.0
361.7762,842.0
361.8422,922.0
361.9082,857.0
361.9741,887.0
362.04,846.0
362.106,913.0
362.1719,817.0
362.2379,878.0
362.3038,829.0
362.3697,933.0
362.4356,842.0
362.5015,928.0
362.5675,849.0
362.6334,984.0
362.6993,894.0
362.7652,917.0
362.8311,838.0
362.8969,904.0
362.9629,828.0
363.0287,973.0
363.0947,884.0
363.1605,975.0
363.2264,890.0
363.2923,906.0
363.3582,854.0
363.424,898.0
363.4899,839.0
363.5557,943.0
363.6216,805.0
363.6874,903.0
363.7533,851.0
363.8191,883.0
363.885,815.0
363.9508,890.0
364.0167,787.0
364.0825,901.0
364.1483,805.0
364.2142,951.0
364.28,809.0
364.3458,933.0
364.4116,842.0
364.4774,888.0
364.5432,827.0
364.609,892.0
364.6748,816.0
364.7406,941.0
364.8065,814.0
364.8722,911.0
364.938,810.0
365.0038,910.0
365.0696,836.0
365.1354,895.0
365.2011,795.0
365.2669,909.0
365.3326,815.0
365.3984,934.0
365.4642,851.0
365.5299,889.0
365.5957,812.0
365.6614,899.0
365.7272,847.0
365.7929,899.0
365.8587,806.0
365.9244,930.0
365.9902,857.0
366.0559,925.0
366.1216,831.0
366.1873,897.0
366.253,813.0
366.3188,892.0
366.3845,812.0
366.4502,887.0
366.5159,820.0
366.5816,918.0
366.6473,818.0
366.713,862.0
366.7787,803.0
366.8444,898.0
366.91,805.0
366.9757,889.0
367.0414,817.0
367.1071,907.0
367.1727,801.0
367.2384,864.0
367.3041,806.0
367.3697,890.0
367.4354,793.0
367.501,908.0
367.5667,802.0
367.6323,915.0
367.698,807.0
367.7636,876.0
367.8292,802.0
367.8948,913.0
367.9605,799.0
368.0261,873.0
368.0918,758.0
368.1573,917.0
368.223,758.0
368.2885,911.0
368.3542,788.0
368.4198,821.0
368.4854,760.0
368.551,905.0
368.6165,771.0
368.6821,918.0
368.7477,814.0
368.8133,844.0
368.8789,802.0
368.9445,865.0
369.01,811.0
369.0756,861.0
369.1411,812.0
369.2067,885.0
369.2723,766.0
369.3379,901.0
369.4034,764.0
369.4689,864.0
369.5345,756.0
369.6,881.0
369.6656,752.0
369.7311,826.0
369.7966,794.0
369.8622,884.0
369.9277,792.0
369.9932,870.0
370.0587,749.0
370.1242,833.0
370.1897,780.0
370.2552,836.0
370.3207,763.0
370.3862,864.0
370.4517,760.0
370.5172,884.0
370.5827,798.0
370.6482,885.0
370.7136,812.0
370.7791,874.0
370.8446,834.0
370.9101,897.0
370.9756,746.0
371.041,862.0
371.1064,819.0
371.1719,865.0
371.2373,788.0
371.3028,899.0
371.3683,805.0
371.4337,915.0
371.4991,814.0
371.5646,878.0
371.63,821.0
371.6954,866.0
371.7608,793.0
371.8263,871.0
371.8917,831.0
371.9571,892.0
372.0225,793.0
372.0879,862.0
372.1533,791.0
372.2187,923.0
372.2841,816.0
372.3495,934.0
372.4149,811.0
372.4803,895.0
372.5457,797.0
372.611,892.0
372.6764,777.0
372.7418,923.0
372.8071,835.0
372.8725,900.0
372.9379,838.0
373.0032,904.0
373.0686,809.0
373.1339,943.0
373.1992,780.0
373.2646,901.0
373.3299,838.0
373.3953,930.0
373.4606,817.0
373.5259,902.0
373.5912,812.0
373.6566,849.0
373.7219,833.0
373.7872,910.0
373.8525,803.0
373.9178,912.0
373.9831,824.0
374.0484,916.0
374.1137,837.0
374.179,925.0
374.2443,804.0
374.3096,934.0
374.3749,850.0
374.4401,912.0
374.5054,850.0
374.5706,918.0
374.636,855.0
374.7012,907.0
374.7665,858.0
374.8318,925.0
374.897,891.0
374.9622,919.0
375.0275,829.0
375.0927,923.0
375.158,864.0
375.2232,945.0
375.2885,857.0
375.3537,950.0
375.4189,861.0
375.4841,940.0
375.5493,822.0
375.6145,950.0
375.6797,871.0
375.745,956.0
375.8101,820.0
375.8754,959.0
375.9406,871.0
376.0057,987.0
376.071,844.0
376.1361,970.0
376.2013,903.0
376.2665,961.0
376.3317,867.0
376.3969,942.0
376.462,847.0
376.5272,959.0
376.5923,940.0
376.6575,951.0
376.7226,885.0
376.7878,997.0
376.8529,879.0
376.9181,1026.0
376.9832,931.0
377.0483,984.0
377.1135,872.0
377.1786,997.0
377.2437,941.0
377.3089,971.0
377.374,960.0
377.4391,964.0
377.5042,936.0
377.5693,970.0
377.6344,903.0
377.6995,986.0
377.7646,950.0
377.8297,1018.0
377.8948,949.0
377.9599,999.0
378.025,973.0
378.09,1047.0
378.1551,989.0
378.2202,966.0
378.2852,991.0
378.3503,1024.0
378.4154,945.0
378.4804,1052.0
378.5455,1021.0
378.6105,1029.0
378.6755,1022.0
378.7406,980.0
378.8057,1014.0
378.8707,1034.0
378.9357,1008.0
379.0008,1109.0
379.0658,1004.0
379.1308,1117.0
379.1958,1043.0
379.2609,1074.0
379.3259,988.0
379.3908,1130.0
379.4558,1068.0
379.5208,1121.0
379.5858,1085.0
379.6509,1076.0
379.7159,1127.0
379.7808,1142.0
379.8458,1068.0
379.9108,1184.0
379.9758,1090.0
380.0407,1259.0
380.1057,1177.0
380.1707,1230.0
380.2356,1168.0
380.3006,1255.0
380.3655,1159.0
380.4305,1260.0
380.4955,1097.0
380.5604,1294.0
380.6253,1121.0
380.6902,1285.0
380.7552,1186.0
380.8201,1306.0
380.885,1189.0
380.95,1206.0
381.0149,1192.0
381.0798,1311.0
381.1447,1201.0
381.2096,1336.0
381.2745,1263.0
381.3394,1296.0
381.4043,1303.0
381.4692,1320.0
381.5341,1262.0
381.5989,1339.0
381.6638,1288.0
381.7287,1405.0
381.7936,1262.0
381.8585,1459.0
381.9233,1369.0
381.9882,1442.0
382.053,1358.0
382.1179,1423.0
382.1828,1367.0
382.2476,1496.0
382.3124,1347.0
382.3773,1471.0
382.4421,1457.0
382.507,1485.0
382.5718,1376.0
382.6366,1455.0
382.7014,1391.0
382.7663,1542.0
382.8311,1384.0
382.8959,1548.0
382.9607,1397.0
383.0255,1495.0
383.0903,1499.0
383.1551,1608.0
383.2199,1494.0
383.2847,1504.0
383.3495,1447.0
383.4143,1571.0
383.479,1430.0
383.5438,1517.0
383.6086,1454.0
383.6734,1549.0
383.7381,1483.0
383.8029,1643.0
383.8676,1586.0
383.9324,1621.0
383.9972,1528.0
384.0619,1677.0
384.1266,1525.0
384.1914,1589.0
384.2562,1504.0
384.3209,1648.0
384.3856,1620.0
384.4503,1796.0
384.515,1716.0
384.5797,1822.0
384.6445,1722.0
384.7092,1916.0
384.7739,1948.0
384.8386,2122.0
384.9033,2033.0
384.968,2149.0
385.0327,2074.0
385.0974,2068.0
385.162,1945.0
385.2267,2010.0
385.2914,2048.0
385.3561,2129.0
385.4208,2116.0
385.4854,1984.0
385.5501,1799.0
385.6147,1934.0
385.6794,1946.0
385.7441,2022.0
385.8087,2110.0
385.8734,2207.0
385.938,2151.0
386.0027,2373.0
386.0673,2317.0
386.1319,2263.0
386.1966,1861.0
386.2612,1827.0
386.3258,1690.0
386.3904,1850.0
386.455,1795.0
386.5196,1902.0
386.5843,1971.0
386.6489,2159.0
386.7135,2167.0
386.778,2459.0
386.8426,2449.0
386.9072,2587.0
386.9718,2737.0
387.0364,2881.0
387.101,2373.0
387.1655,1862.0
387.2301,1563.0
387.2946,1578.0
387.3593,1434.0
387.4238,1508.0
387.4884,1501.0
387.5529,1675.0
387.6175,1715.0
387.682,1929.0
387.7466,1962.0
387.8111,2296.0
387.8756,2275.0
387.9402,2655.0
388.0047,2754.0
388.0692,3191.0
388.1337,3210.0
388.1982,3387.0
388.2628,2997.0
388.3272,2107.0
388.3918,1389.0
388.4563,1203.0
388.5208,937.0
388.5852,988.0
388.6497,873.0
388.7142,920.0
388.7787,867.0
388.8432,924.0
388.9077,856.0
388.9721,914.0
389.0366,812.0
389.1011,963.0
389.1655,842.0
389.23,952.0
389.2944,853.0
389.3589,930.0
389.4233,821.0
389.4878,927.0
389.5522,826.0
389.6167,898.0
389.6811,849.0
389.7455,930.0
389.8099,841.0
389.8744,933.0
389.9388,837.0
390.0032,926.0
390.0676,885.0
390.132,930.0
390.1964,856.0
390.2608,898.0
390.3252,863.0
390.3896,938.0
390.454,867.0
390.5184,960.0
390.5827,831.0
390.6471,915.0
390.7115,841.0
390.7759,931.0
390.8402,874.0
390.9046,961.0
390.9689,879.0
391.0333,904.0
391.0977,857.0
391.162,955.0
391.2264,884.0
391.2907,935.0
391.355,884.0
391.4193,932.0
391.4837,879.0
391.548,960.0
391.6123,877.0
391.6767,1004.0
391.741,858.0
391.8053,945.0
391.8696,858.0
391.9339,952.0
391.9982,902.0
392.0625,939.0
392.1268,874.0
392.1911,955.0
392.2553,846.0
392.3196,963.0
392.3839,887.0
392.4482,921.0
392.5125,843.0
392.5767,979.0
392.641,895.0
392.7053,961.0
392.7695,824.0
392.8338,1007.0
392.898,907.0
392.9622,991.0
393.0265,874.0
393.0908,988.0
393.155,977.0
393.2192,1115.0
393.2834,1069.0
393.3477,1029.0
393.4118,976.0
393.476,1022.0
393.5403,885.0
393.6045,966.0
393.6687,874.0
393.7329,946.0
393.7971,835.0
393.8613,932.0
393.9255,875.0
393.9897,979.0
394.0539,893.0
394.118,965.0
394.1822,864.0
394.2464,931.0
394.3105,841.0
394.3747,940.0
394.4389,874.0
394.503,968.0
394.5672,869.0
394.6313,954.0
394.6954,890.0
394.7596,935.0
394.8238,864.0
394.8879,936.0
394.952,827.0
395.0161,909.0
395.0803,843.0
395.1444,948.0
395.2085,818.0
395.2726,909.0
395.3367,906.0
395.4008,891.0
395.4649,846.0
395.529,921.0
395.5931,852.0
395.6572,857.0
395.7213,847.0
395.7854,919.0
395.8495,862.0
395.9135,910.0
395.9776,850.0
396.0417,995.0
396.1057,845.0
396.1698,905.0
396.2339,857.0
396.2979,905.0
396.362,839.0
396.426,934.0
396.4901,852.0
396.5541,940.0
396.6181,868.0
396.6821,965.0
396.7462,925.0
396.8102,1006.0
396.8743,872.0
396.9383,948.0
397.0023,864.0
397.0662,900.0
397.1302,853.0
397.1943,904.0
397.2583,828.0
397.3223,882.0
397.3862,854.0
397.4502,902.0
397.5142,792.0
397.5782,908.0
397.6422,829.0
397.7061,907.0
397.7701,853.0
397.8341,896.0
397.898,826.0
397.962,892.0
398.0259,825.0
398.0899,874.0
398.1538,834.0
398.2178,885.0
398.2817,850.0
398.3456,930.0
398.4096,809.0
398.4735,911.0
398.5374,782.0
398.6013,943.0
398.6653,839.0
398.7292,864.0
398.7931,877.0
398.857,905.0
398.9209,809.0
398.9848,917.0
399.0487,848.0
399.1125,924.0
399.1765,862.0
399.2404,922.0
399.3042,834.0
399.3681,938.0
399.432,822.0
399.4958,943.0
399.5597,821.0
399.6236,943.0
399.6875,875.0
399.7513,899.0
399.8152,891.0
399.879,970.0
399.9428,831.0
400.0067,989.0
400.0705,863.0
400.1343,945.0
400.1982,833.0
400.262,913.0
400.3258,838.0
400.3896,927.0
400.4534,854.0
400.5172,914.0
400.581,804.0
400.6448,941.0
400.7086,837.0
400.7724,935.0
400.8362,847.0
400.9,950.0
400.9638,828.0
401.0276,998.0
401.0913,883.0
401.1551,969.0
401.2189,807.0
401.2826,950.0
401.3464,879.0
401.4102,925.0
401.4739,878.0
401.5376,949.0
401.6014,875.0
401.6651,929.0
401.7289,856.0
401.7926,969.0
401.8564,872.0
401.92,919.0
401.9838,896.0
402.0475,960.0
402.1112,852.0
402.175,912.0
402.2386,877.0
402.3023,956.0
402.366,848.0
402.4297,982.0
402.4934,866.0
402.5571,958.0
402.6208,894.0
402.6845,974.0
402.7482,857.0
402.8118,981.0
402.8755,887.0
402.9392,993.0
403.0028,869.0
403.0665,932.0
403.1301,918.0
403.1938,941.0
403.2574,926.0
403.3211,980.0
403.3847,886.0
403.4484,967.0
403.512,852.0
403.5756,971.0
403.6393,906.0
403.7029,975.0
403.7665,895.0
403.8301,1000.0
403.8937,869.0
403.9573,961.0
404.0209,855.0
404.0845,987.0
404.1481,876.0
404.2117,956.0
404.2753,894.0
404.3389,967.0
404.4024,871.0
404.466,916.0
404.5296,904.0
404.5932,959.0
404.6567,913.0
404.7203,973.0
404.7838,876.0
404.8474,974.0
404.9109,851.0
404.9745,918.0
405.0381,878.0
405.1016,988.0
405.1651,863.0
405.2286,917.0
405.2922,885.0
405.3557,977.0
405.4193,864.0
405.4828,905.0
405.5462,934.0
405.6097,964.0
405.6733,906.0
405.7368,992.0
405.8003,888.0
405.8638,953.0
405.9272,876.0
405.9907,927.0
406.0542,890.0
406.1177,986.0
406.1812,860.0
406.2446,908.0
406.3081,905.0
406.3716,973.0
406.435,871.0
406.4985,960.0
406.562,858.0
406.6254,1028.0
406.6888,890.0
406.7523,969.0
406.8157,902.0
406.8791,955.0
406.9426,900.0
407.006,947.0
407.0694,956.0
407.1328,993.0
407.1962,943.0
407.2597,996.0
407.3231,927.0
407.3865,1028.0
407.4499,868.0
407.5133,973.0
407.5767,916.0
407.64,1009.0
407.7034,888.0
407.7668,990.0
407.8302,932.0
407.8936,1034.0
407.9569,908.0
408.0203,1028.0
408.0836,889.0
408.147,1020.0
408.2104,901.0
408.2737,1050.0
408.3371,922.0
408.4004,1014.0
408.4637,912.0
408.5271,1034.0
408.5905,979.0
408.6537,959.0
408.7171,893.0
408.7804,996.0
408.8437,947.0
408.907,993.0
408.9703,915.0
409.0336,1014.0
409.0969,966.0
409.1602,1037.0
409.2235,990.0
409.2868,969.0
409.3501,897.0
409.4134,1047.0
409.4767,972.0
409.5399,1051.0
409.6032,922.0
409.6665,1000.0
409.7297,937.0
409.793,1012.0
409.8563,945.0
409.9195,1003.0
409.9827,938.0
410.046,1012.0
410.1092,956.0
410.1725,1040.0
410.2357,1007.0
410.299,995.0
410.3622,972.0
410.4254,1030.0
410.4886,912.0
410.5518,1037.0
410.615,939.0
410.6782,1056.0
410.7414,959.0
410.8046,1066.0
410.8678,934.0
410.931,1033.0
410.9942,906.0
411.0574,1003.0
411.1205,909.0
411.1837,997.0
411.2469,906.0
411.3101,965.0
411.3733,941.0
411.4364,1042.0
411.4995,880.0
411.5627,981.0
411.6259,932.0
411.689,1016.0
411.7521,915.0
411.8153,1046.0
411.8784,984.0
411.9415,998.0
412.0046,946.0
412.0678,1003.0
412.1309,917.0
412.194,1026.0
412.2571,933.0
412.3203,989.0
412.3833,927.0
412.4464,1018.0
412.5096,967.0
412.5727,980.0
412.6357,958.0
412.6988,1087.0
412.7619,943.0
412.825,1019.0
412.8881,950.0
412.9511,991.0
413.0142,925.0
413.0772,1027.0
413.1403,909.0
413.2033,1009.0
413.2664,927.0
413.3294,994.0
413.3925,919.0
413.4555,1040.0
413.5186,928.0
413.5816,1035.0
413.6446,929.0
413.7076,1051.0
413.7707,922.0
413.8337,1036.0
413.8967,909.0
413.9597,1004.0
414.0227,947.0
414.0857,1007.0
414.1487,936.0
414.2117,986.0
414.2747,918.0
414.3376,1059.0
414.4006,973.0
414.4636,1054.0
414.5266,961.0
414.5896,1039.0
414.6525,963.0
414.7155,1060.0
414.7784,965.0
414.8414,1108.0
414.9044,1049.0
414.9673,1179.0
415.0303,1082.0
415.0932,1148.0
415.1561,1062.0
415.2191,1054.0
415.282,981.0
415.3449,1077.0
415.4079,972.0
415.4708,1093.0
415.5336,1075.0
415.5966,1106.0
415.6595,1034.0
415.7224,1112.0
415.7853,1048.0
415.8482,1043.0
415.9111,981.0
415.9739,1037.0
416.0368,994.0
416.0997,1066.0
416.1626,973.0
416.2255,1024.0
416.2883,1074.0
416.3512,1073.0
416.414,1017.0
416.4769,1170.0
416.5397,1066.0
416.6026,1191.0
416.6654,994.0
416.7283,1096.0
416.7911,997.0
416.8539,1027.0
416.9167,969.0
416.9796,1057.0
417.0424,996.0
417.1052,1072.0
417.168,969.0
417.2308,1058.0
417.2936,986.0
417.3564,1018.0
417.4193,974.0
417.4821,1056.0
417.5448,955.0
417.6076,1077.0
417.6704,999.0
417.7332,1139.0
417.796,1026.0
417.8587,1151.0
417.9215,1104.0
417.9842,1177.0
418.047,1023.0
418.1098,1097.0
418.1725,949.0
418.2353,1042.0
418.298,894.0
418.3607,971.0
418.4235,884.0
418.4862,1050.0
418.549,919.0
418.6117,997.0
418.6744,941.0
418.7371,1000.0
418.7998,919.0
418.8625,1001.0
418.9252,942.0
418.9879,992.0
419.0507,896.0
419.1133,1031.0
419.176,992.0
419.2387,1107.0
419.3014,988.0
419.3641,1108.0
419.4268,1107.0
419.4894,1162.0
419.5521,1183.0
419.6147,1182.0
419.6774,1064.0
419.7401,1045.0
419.8027,909.0
419.8654,947.0
419.928,883.0
419.9906,974.0
420.0533,908.0
420.1159,948.0
420.1785,937.0
420.2411,955.0
420.3038,865.0
420.3664,956.0
420.429,862.0
420.4916,966.0
420.5542,887.0
420.6168,992.0
420.6794,904.0
420.742,943.0
420.8046,867.0
420.8672,997.0
420.9297,948.0
420.9923,1062.0
421.0549,909.0
421.1175,1117.0
421.18,956.0
421.2426,1028.0
421.3052,1025.0
421.3677,1148.0
421.4303,1072.0
421.4928,1132.0
421.5554,956.0
421.6179,1008.0
421.6804,878.0
421.743,882.0
421.8055,850.0
421.868,916.0
421.9305,792.0
421.993,889.0
422.0556,821.0
422.1181,891.0
422.1806,816.0
422.2431,930.0
422.3055,812.0
422.368,954.0
422.4305,907.0
422.493,950.0
422.5555,937.0
422.618,1002.0
422.6805,883.0
422.7429,935.0
422.8054,859.0
422.8679,910.0
422.9303,815.0
422.9928,939.0
423.0552,817.0
423.1177,885.0
423.1801,813.0
423.2425,929.0
423.305,829.0
423.3674,876.0
423.4298,854.0
423.4922,924.0
423.5547,806.0
423.617,856.0
423.6795,780.0
423.7419,949.0
423.8043,838.0
423.8667,913.0
423.9291,844.0
423.9915,934.0
424.0538,866.0
424.1163,893.0
424.1786,822.0
424.241,898.0
424.3034,907.0
424.3658,923.0
424.4281,824.0
424.4905,909.0
424.5529,865.0
424.6152,987.0
424.6775,835.0
424.7399,966.0
424.8022,860.0
424.8646,962.0
424.9269,885.0
424.9892,917.0
425.0515,867.0
425.1139,944.0
425.1762,857.0
425.2385,994.0
425.3008,890.0
425.3631,919.0
425.4254,884.0
425.4877,970.0
425.55,827.0
425.6123,959.0
425.6746,929.0
425.7369,990.0
425.7992,921.0
425.8614,969.0
425.9237,953.0
425.9859,992.0
426.0482,933.0
426.1105,976.0
426.1727,928.0
426.235,990.0
426.2972,876.0
426.3595,966.0
426.4217,874.0
426.4839,966.0
426.5462,931.0
426.6084,994.0
426.6706,925.0
426.7328,997.0
426.795,917.0
426.8573,955.0
426.9195,883.0
426.9817,940.0
427.0439,888.0
427.1061,946.0
427.1683,917.0
427.2305,947.0
427.2927,896.0
427.3549,898.0
427.417,875.0
427.4792,942.0
427.5413,859.0
427.6035,964.0
427.6657,859.0
427.7278,953.0
427.79,863.0
427.8521,937.0
427.9142,838.0
427.9764,971.0
428.0386,876.0
428.1007,953.0
428.1628,920.0
428.2249,937.0
428.287,917.0
428.3492,962.0
428.4113,812.0
428.4734,942.0
428.5355,906.0
428.5976,920.0
428.6597,845.0
428.7218,952.0
428.7839,847.0
428.846,953.0
428.9081,822.0
428.9702,932.0
429.0322,834.0
429.0943,921.0
429.1563,864.0
429.2184,929.0
429.2805,864.0
429.3425,895.0
429.4046,854.0
429.4666,888.0
429.5287,848.0
429.5908,946.0
429.6528,799.0
429.7148,937.0
429.7768,802.0
429.8388,888.0
429.9008,819.0
429.9629,923.0
430.0249,824.0
430.0869,941.0
430.1489,844.0
430.2109,955.0
430.2729,805.0
430.3349,912.0
430.3969,848.0
430.4589,904.0
430.5208,859.0
430.5828,904.0
430.6448,774.0
430.7068,928.0
430.7688,840.0
430.8307,931.0
430.8926,848.0
430.9546,907.0
431.0165,804.0
431.0785,906.0
431.1404,819.0
431.2024,912.0
431.2643,797.0
431.3262,970.0
431.3881,827.0
431.4501,869.0
431.512,804.0
431.5739,892.0
431.6358,819.0
431.6977,887.0
431.7596,792.0
431.8215,862.0
431.8834,800.0
431.9453,867.0
432.0072,825.0
432.0691,872.0
432.131,823.0
432.1928,902.0
432.2547,783.0
432.3165,840.0
432.3784,776.0
432.4403,861.0
432.5021,795.0
432.564,887.0
432.6258,832.0
432.6876,882.0
432.7495,780.0
432.8113,863.0
432.8732,765.0
432.935,860.0
432.9968,773.0
433.0586,888.0
433.1204,775.0
433.1823,918.0
433.2441,804.0
433.3059,884.0
433.3677,812.0
433.4295,867.0
433.4912,819.0
433.5531,888.0
433.6148,804.0
433.6766,876.0
433.7384,829.0
433.8001,885.0
433.8619,804.0
433.9237,896.0
433.9854,830.0
434.0472,842.0
434.1089,816.0
434.1707,864.0
434.2324,836.0
434.2942,939.0
434.3559,805.0
434.4177,938.0
434.4794,780.0
434.5411,940.0
434.6028,863.0
434.6645,900.0
434.7263,821.0
434.788,876.0
434.8497,804.0
434.9113,915.0
434.973,812.0
435.0347,940.0
435.0965,782.0
435.1581,934.0
435.2198,843.0
435.2815,878.0
435.3431,812.0
435.4048,885.0
435.4665,787.0
435.5282,897.0
435.5898,837.0
435.6515,940.0
435.7131,866.0
435.7747,925.0
435.8363,868.0
435.898,938.0
435.9597,854.0
436.0213,911.0
436.0829,906.0
436.1445,976.0
436.2061,891.0
436.2678,1001.0
436.3294,919.0
436.391,1007.0
436.4525,910.0
436.5141,921.0
436.5757,860.0
436.6373,979.0
436.6989,849.0
436.7605,913.0
436.8221,866.0
436.8836,906.0
436.9452,891.0
437.0067,956.0
437.0684,912.0
437.1299,919.0
437.1914,839.0
437.253,923.0
437.3145,868.0
437.3761,940.0
437.4376,791.0
437.4992,889.0
437.5607,791.0
437.6222,856.0
437.6837,816.0
437.7452,895.0
437.8067,844.0
437.8683,897.0
437.9298,864.0
437.9913,894.0
438.0528,811.0
438.1143,878.0
438.1757,794.0
438.2372,872.0
438.2987,821.0
438.3602,893.0
438.4217,817.0
438.4831,867.0
438.5446,788.0
438.6061,864.0
438.6675,796.0
438.729,824.0
438.7904,751.0
438.8519,866.0
438.9133,776.0
438.9747,876.0
439.0362,758.0
439.0976,879.0
439.159,787.0
439.2204,850.0
439.2819,780.0
439.3433,901.0
439.4047,773.0
439.4661,901.0
439.5275,795.0
439.5889,864.0
439.6503,800.0
439.7116,888.0
439.7731,774.0
439.8345,889.0
439.8958,746.0
439.9572,854.0
440.0186,816.0
440.0799,843.0
440.1413,788.0
440.2027,885.0
440.264,799.0
440.3253,892.0
440.3867,815.0
440.448,852.0
440.5093,768.0
440.5707,879.0
440.632,792.0
440.6934,857.0
440.7546,792.0
440.816,890.0
440.8773,781.0
440.9386,854.0
440.9999,790.0
441.0612,884.0
441.1225,797.0
441.1838,886.0
441.2451,765.0
441.3063,879.0
441.3677,802.0
441.429,878.0
441.4902,765.0
441.5515,858.0
441.6127,787.0
441.674,891.0
441.7353,769.0
441.7965,872.0
441.8578,775.0
441.919,863.0
441.9802,791.0
442.0414,930.0
442.1027,796.0
442.164,857.0
442.2252,811.0
442.2864,873.0
442.3476,775.0
442.4088,902.0
442.47,832.0
442.5312,851.0
442.5924,790.0
442.6536,917.0
442.7148,827.0
442.776,896.0
442.8372,817.0
442.8984,851.0
442.9596,774.0
443.0207,885.0
443.0819,772.0
443.143,868.0
443.2042,815.0
443.2653,897.0
443.3265,764.0
443.3877,886.0
443.4488,812.0
443.5099,885.0
443.5711,798.0
443.6322,842.0
443.6934,761.0
443.7545,886.0
443.8156,778.0
443.8767,851.0
443.9378,815.0
443.9989,862.0
444.0601,815.0
444.1212,865.0
444.1822,807.0
444.2433,907.0
444.3044,853.0
444.3654,883.0
444.4265,776.0
444.4877,905.0
444.5487,805.0
444.6098,914.0
444.6708,867.0
444.7319,898.0
444.7929,830.0
444.854,882.0
444.915,839.0
444.9761,865.0
445.0371,771.0
445.0981,875.0
445.1592,771.0
445.2203,853.0
445.2812,822.0
445.3423,911.0
445.4033,795.0
445.4643,913.0
445.5253,826.0
445.5862,891.0
445.6473,827.0
445.7083,947.0
445.7693,832.0
445.8303,887.0
445.8912,809.0
445.9522,821.0
446.0132,801.0
446.0742,852.0
446.1352,791.0
446.1961,910.0
446.257,822.0
446.318,900.0
446.379,794.0
446.4399,843.0
446.5009,765.0
446.5618,885.0
446.6227,746.0
446.6836,867.0
446.7446,801.0
446.8055,840.0
446.8664,782.0
446.9273,871.0
446.9883,817.0
447.0491,834.0
447.11,780.0
447.171,875.0
447.2319,789.0
447.2927,898.0
447.3536,829.0
447.4145,854.0
447.4753,833.0
447.5363,840.0
447.5971,765.0
447.658,864.0
447.7188,763.0
447.7797,850.0
447.8405,754.0
447.9014,848.0
447.9623,758.0
448.0231,813.0
448.0839,763.0
448.1447,837.0
448.2056,726.0
448.2664,853.0
448.3272,782.0
448.3881,803.0
448.4489,748.0
448.5096,841.0
448.5705,728.0
448.6312,813.0
448.6921,753.0
448.7529,908.0
448.8137,764.0
448.8744,866.0
448.9352,764.0
448.9959,830.0
449.0567,756.0
449.1175,844.0
449.1783,725.0
449.239,828.0
449.2998,751.0
449.3605,828.0
449.4213,740.0
449.4821,828.0
449.5428,716.0
449.6035,825.0
449.6642,736.0
449.725,826.0
449.7857,758.0
449.8464,840.0
449.9071,744.0
449.9679,810.0
450.0285,707.0
450.0892,915.0
450.1499,746.0
450.2106,792.0
450.2714,775.0
450.332,825.0
450.3927,757.0
450.4534,827.0
450.514,728.0
450.5747,803.0
450.6354,744.0
450.696,774.0
450.7567,731.0
450.8174,784.0
450.878,727.0
450.9386,834.0
450.9993,775.0
451.0599,809.0
451.1206,712.0
451.1812,819.0
451.2418,737.0
451.3024,771.0
451.363,696.0
451.4236,800.0
451.4843,723.0
451.5449,852.0
451.6054,711.0
451.666,856.0
451.7267,766.0
451.7873,763.0
451.8478,718.0
451.9084,825.0
451.969,712.0
452.0295,797.0
452.0901,735.0
452.1507,815.0
452.2113,714.0
452.2718,778.0
452.3324,736.0
452.3929,797.0
452.4534,753.0
452.5139,827.0
452.5745,699.0
452.635,792.0
452.6956,752.0
452.7561,786.0
452.8166,751.0
452.8771,831.0
452.9377,740.0
452.9981,792.0
453.0586,721.0
453.1191,859.0
453.1796,749.0
453.2401,816.0
453.3006,756.0
453.3611,772.0
453.4216,741.0
453.4821,820.0
453.5425,748.0
453.6029,838.0
453.6634,748.0
453.7239,804.0
453.7844,768.0
453.8448,844.0
453.9052,721.0
453.9656,866.0
454.0261,756.0
454.0866,874.0
454.147,728.0
454.2074,880.0
454.2678,745.0
454.3282,808.0
454.3886,753.0
454.449,872.0
454.5095,802.0
454.5699,838.0
454.6302,776.0
454.6906,818.0
454.751,746.0
454.8114,867.0
454.8718,743.0
454.9322,856.0
454.9925,767.0
455.0529,863.0
455.1133,821.0
455.1736,839.0
455.234,782.0
455.2943,845.0
455.3547,791.0
455.415,872.0
455.4753,801.0
455.5357,839.0
455.5959,768.0
455.6563,871.0
455.7167,766.0
455.777,854.0
455.8373,789.0
455.8976,776.0
455.9579,775.0
456.0182,839.0
456.0785,759.0
456.1388,868.0
456.1991,770.0
456.2593,845.0
456.3196,783.0
456.3799,907.0
456.4402,806.0
456.5005,875.0
456.5607,762.0
456.621,819.0
456.6812,775.0
456.7414,865.0
456.8018,811.0
456.862,839.0
456.9222,735.0
456.9825,817.0
457.0426,750.0
457.1028,829.0
457.1631,753.0
457.2234,793.0
457.2835,778.0
457.3438,869.0
457.404,764.0
457.4641,852.0
457.5244,806.0
457.5846,833.0
457.6447,788.0
457.7049,870.0
457.7651,844.0
457.8253,879.0
457.8854,786.0
457.9456,862.0
458.0058,763.0
458.0659,832.0
458.1261,723.0
458.1862,855.0
458.2464,761.0
458.3066,885.0
458.3667,770.0
458.4268,865.0
458.4869,771.0
458.5471,700.0
458.6072,612.0
458.6674,695.0
458.7274,610.0
458.7876,673.0
458.8477,640.0
458.9077,674.0
458.9679,587.0
459.0279,711.0
459.0881,630.0
459.1481,688.0
459.2082,631.0
459.2683,725.0
459.3283,627.0
459.3884,689.0
459.4485,602.0
459.5086,695.0
459.5686,602.0
459.6287,697.0
459.6887,650.0
459.7487,727.0
459.8088,657.0
459.8688,669.0
459.9289,610.0
459.9889,723.0
460.0489,693.0
460.1089,722.0
460.1689,640.0
460.229,687.0
460.289,609.0
