Laser settings:
	Diode frequency:	5 Hz
	Pulses fired:		105
	Q-Switch blanking:	5
	Q-Switch delay:		201 μs
	Q-Switch presync:	1 μs
Spectrometer settings:
	Integration time:	0.0090 ms
	Integration delay:	0.000 ns
	Averaging:		1
	Trigger mode:		External
	Dynamic Dark Correction:		Disabled


wavelength,intensity
184.9409,631.0
185.0142,593.0
185.0875,672.0
185.1608,654.0
185.2341,665.0
185.3074,597.0
185.3807,676.0
185.454,656.0
185.5273,705.0
185.6006,630.0
185.6739,654.0
185.7472,600.0
185.8205,704.0
185.8938,620.0
185.9671,681.0
186.0403,597.0
186.1136,656.0
186.1869,566.0
186.2601,672.0
186.3334,616.0
186.4067,684.0
186.4799,558.0
186.5532,673.0
186.6265,638.0
186.6997,688.0
186.773,646.0
186.8462,683.0
186.9195,598.0
186.9928,621.0
187.066,626.0
187.1392,675.0
187.2125,625.0
187.2857,681.0
187.3589,650.0
187.4322,701.0
187.5054,665.0
187.5786,666.0
187.6519,650.0
187.7251,707.0
187.7983,596.0
187.8715,694.0
187.9447,691.0
188.018,709.0
188.0912,641.0
188.1644,718.0
188.2376,605.0
188.3108,733.0
188.384,624.0
188.4572,674.0
188.5304,677.0
188.6036,684.0
188.6768,650.0
188.75,746.0
188.8232,635.0
188.8963,704.0
188.9695,634.0
189.0427,691.0
189.1159,615.0
189.1891,743.0
189.2623,680.0
189.3354,713.0
189.4086,673.0
189.4818,683.0
189.5549,651.0
189.6281,698.0
189.7012,680.0
189.7744,710.0
189.8476,623.0
189.9207,687.0
189.9939,681.0
190.067,684.0
190.1402,679.0
190.2133,707.0
190.2864,659.0
190.3596,728.0
190.4327,652.0
190.5059,733.0
190.579,663.0
190.6521,735.0
190.7253,656.0
190.7984,742.0
190.8715,668.0
190.9446,773.0
191.0177,629.0
191.0908,696.0
191.164,669.0
191.2371,764.0
191.3102,684.0
191.3833,694.0
191.4564,650.0
191.5295,780.0
191.6026,652.0
191.6757,760.0
191.7488,655.0
191.8219,733.0
191.895,684.0
191.968,764.0
192.0411,716.0
192.1142,761.0
192.1873,660.0
192.2604,756.0
192.3334,706.0
192.4065,782.0
192.4796,704.0
192.5527,758.0
192.6257,704.0
192.6988,795.0
192.7718,759.0
192.8449,846.0
192.918,851.0
192.991,948.0
193.064,1049.0
193.1371,1159.0
193.2101,1021.0
193.2832,981.0
193.3562,828.0
193.4292,890.0
193.5023,751.0
193.5753,812.0
193.6484,702.0
193.7214,786.0
193.7944,735.0
193.8674,823.0
193.9405,656.0
194.0135,825.0
194.0865,707.0
194.1595,811.0
194.2325,717.0
194.3055,788.0
194.3785,658.0
194.4515,813.0
194.5246,743.0
194.5975,764.0
194.6705,696.0
194.7435,739.0
194.8165,638.0
194.8895,787.0
194.9625,720.0
195.0355,792.0
195.1085,689.0
195.1815,763.0
195.2544,671.0
195.3274,758.0
195.4004,720.0
195.4734,778.0
195.5463,689.0
195.6193,801.0
195.6923,719.0
195.7652,764.0
195.8382,707.0
195.9111,760.0
195.9841,678.0
196.057,783.0
196.13,724.0
196.2029,769.0
196.2759,730.0
196.3488,775.0
196.4218,721.0
196.4947,768.0
196.5676,728.0
196.6406,789.0
196.7135,693.0
196.7864,792.0
196.8593,700.0
196.9323,752.0
197.0052,740.0
197.0781,782.0
197.151,680.0
197.2239,750.0
197.2969,698.0
197.3697,750.0
197.4427,685.0
197.5156,760.0
197.5885,733.0
197.6614,727.0
197.7343,671.0
197.8072,752.0
197.88,702.0
197.9529,732.0
198.0258,715.0
198.0987,829.0
198.1716,696.0
198.2445,767.0
198.3173,730.0
198.3902,747.0
198.4631,702.0
198.5359,794.0
198.6088,647.0
198.6817,749.0
198.7545,751.0
198.8274,721.0
198.9003,703.0
198.9731,789.0
199.046,676.0
199.1188,761.0
199.1917,740.0
199.2645,765.0
199.3373,700.0
199.4102,782.0
199.483,710.0
199.5559,748.0
199.6287,704.0
199.7015,748.0
199.7744,727.0
199.8472,771.0
199.92,716.0
199.9928,728.0
200.0656,686.0
200.1385,767.0
200.2113,699.0
200.2841,776.0
200.3569,678.0
200.4297,777.0
200.5025,705.0
200.5753,781.0
200.6481,674.0
200.7209,781.0
200.7937,686.0
200.8665,726.0
200.9393,678.0
201.0121,745.0
201.0848,716.0
201.1576,751.0
201.2304,697.0
201.3032,729.0
201.3759,716.0
201.4487,768.0
201.5215,679.0
201.5943,776.0
201.667,694.0
201.7398,760.0
201.8125,668.0
201.8853,777.0
201.958,678.0
202.0308,781.0
202.1035,698.0
202.1763,788.0
202.249,736.0
202.3218,751.0
202.3945,692.0
202.4673,795.0
202.54,728.0
202.6127,760.0
202.6855,681.0
202.7582,778.0
202.8309,683.0
202.9036,770.0
202.9764,656.0
203.0491,782.0
203.1218,697.0
203.1945,755.0
203.2672,705.0
203.3399,804.0
203.4126,695.0
203.4853,828.0
203.558,685.0
203.6307,822.0
203.7034,732.0
203.7761,793.0
203.8488,734.0
203.9215,790.0
203.9942,683.0
204.0669,784.0
204.1395,660.0
204.2122,743.0
204.2849,713.0
204.3576,757.0
204.4302,672.0
204.5029,800.0
204.5756,741.0
204.6482,746.0
204.7209,692.0
204.7935,776.0
204.8662,676.0
204.9389,790.0
205.0115,683.0
205.0842,762.0
205.1568,710.0
205.2294,714.0
205.3021,711.0
205.3747,763.0
205.4474,687.0
205.52,781.0
205.5926,673.0
205.6653,769.0
205.7379,685.0
205.8105,707.0
205.8831,702.0
205.9557,746.0
206.0284,704.0
206.101,746.0
206.1736,691.0
206.2462,741.0
206.3188,671.0
206.3914,746.0
206.464,681.0
206.5366,785.0
206.6092,672.0
206.6818,757.0
206.7544,743.0
206.827,778.0
206.8996,698.0
206.9721,746.0
207.0447,702.0
207.1173,761.0
207.1899,697.0
207.2625,785.0
207.335,695.0
207.4076,765.0
207.4802,676.0
207.5527,768.0
207.6253,684.0
207.6978,751.0
207.7704,702.0
207.843,726.0
207.9155,678.0
207.9881,734.0
208.0606,695.0
208.1331,765.0
208.2057,709.0
208.2782,779.0
208.3508,729.0
208.4233,793.0
208.4958,696.0
208.5684,762.0
208.6409,723.0
208.7134,784.0
208.7859,696.0
208.8584,784.0
208.931,669.0
209.0035,735.0
209.076,674.0
209.1485,784.0
209.221,674.0
209.2935,784.0
209.366,709.0
209.4385,797.0
209.511,670.0
209.5835,815.0
209.656,718.0
209.7285,808.0
209.801,668.0
209.8735,799.0
209.9459,735.0
210.0184,771.0
210.0909,720.0
210.1634,780.0
210.2358,693.0
210.3083,751.0
210.3808,737.0
210.4532,748.0
210.5257,662.0
210.5982,772.0
210.6706,717.0
210.7431,742.0
210.8155,730.0
210.888,725.0
210.9604,654.0
211.0329,744.0
211.1053,665.0
211.1777,713.0
211.2502,676.0
211.3226,721.0
211.3951,652.0
211.4675,766.0
211.5399,700.0
211.6123,820.0
211.6847,688.0
211.7572,760.0
211.8296,685.0
211.902,792.0
211.9744,682.0
212.0468,762.0
212.1192,702.0
212.1917,746.0
212.264,718.0
212.3364,743.0
212.4088,717.0
212.4812,779.0
212.5536,751.0
212.626,781.0
212.6984,675.0
212.7708,768.0
212.8432,683.0
212.9155,819.0
212.9879,710.0
213.0603,761.0
213.1326,698.0
213.205,779.0
213.2774,713.0
213.3498,763.0
213.4221,714.0
213.4945,775.0
213.5668,673.0
213.6392,768.0
213.7115,669.0
213.7839,755.0
213.8562,667.0
213.9286,734.0
214.0009,696.0
214.0732,782.0
214.1456,695.0
214.2179,763.0
214.2903,699.0
214.3626,764.0
214.4349,705.0
214.5072,747.0
214.5796,657.0
214.6519,761.0
214.7242,746.0
214.7965,802.0
214.8688,679.0
214.9411,758.0
215.0134,678.0
215.0857,797.0
215.158,693.0
215.2303,821.0
215.3026,741.0
215.3749,801.0
215.4472,724.0
215.5195,804.0
215.5918,660.0
215.6641,770.0
215.7363,702.0
215.8086,792.0
215.8809,718.0
215.9532,760.0
216.0254,769.0
216.0977,703.0
216.17,686.0
216.2422,767.0
216.3145,714.0
216.3867,800.0
216.459,765.0
216.5313,803.0
216.6035,711.0
216.6758,777.0
216.748,680.0
216.8202,772.0
216.8925,735.0
216.9647,807.0
217.037,726.0
217.1092,834.0
217.1814,694.0
217.2536,837.0
217.3259,697.0
217.3981,771.0
217.4703,723.0
217.5425,757.0
217.6147,698.0
217.687,794.0
217.7592,777.0
217.8314,829.0
217.9035,718.0
217.9758,749.0
218.048,721.0
218.1201,770.0
218.1924,740.0
218.2645,819.0
218.3367,732.0
218.4089,768.0
218.4811,705.0
218.5533,816.0
218.6255,701.0
218.6976,778.0
218.7698,754.0
218.842,828.0
218.9142,740.0
218.9863,790.0
219.0585,721.0
219.1306,787.0
219.2028,754.0
219.2749,830.0
219.3471,723.0
219.4193,816.0
219.4914,719.0
219.5636,803.0
219.6357,747.0
219.7078,795.0
219.78,746.0
219.8521,801.0
219.9242,745.0
219.9964,827.0
220.0685,737.0
220.1406,835.0
220.2128,774.0
220.2849,800.0
220.357,749.0
220.4291,842.0
220.5012,737.0
220.5733,811.0
220.6454,774.0
220.7175,792.0
220.7896,771.0
220.8617,836.0
220.9338,735.0
221.0059,805.0
221.078,770.0
221.1501,811.0
221.2222,744.0
221.2943,875.0
221.3663,738.0
221.4384,817.0
221.5105,761.0
221.5826,774.0
221.6546,735.0
221.7267,833.0
221.7988,758.0
221.8708,834.0
221.9429,729.0
222.015,775.0
222.087,750.0
222.1591,765.0
222.2311,767.0
222.3032,846.0
222.3752,739.0
222.4473,845.0
222.5193,716.0
222.5913,809.0
222.6634,705.0
222.7354,823.0
222.8074,742.0
222.8795,838.0
222.9515,710.0
223.0235,802.0
223.0955,729.0
223.1675,827.0
223.2395,789.0
223.3116,811.0
223.3836,735.0
223.4556,850.0
223.5276,795.0
223.5996,822.0
223.6716,759.0
223.7436,847.0
223.8156,763.0
223.8876,843.0
223.9595,741.0
224.0315,813.0
224.1035,773.0
224.1755,781.0
224.2475,755.0
224.3195,812.0
224.3914,760.0
224.4634,820.0
224.5354,698.0
224.6073,835.0
224.6793,796.0
224.7512,850.0
224.8232,764.0
224.8952,861.0
224.9671,755.0
225.0391,812.0
225.111,791.0
225.1829,850.0
225.2549,774.0
225.3268,815.0
225.3988,746.0
225.4707,863.0
225.5426,793.0
225.6146,893.0
225.6865,801.0
225.7584,871.0
225.8303,805.0
225.9022,890.0
225.9742,794.0
226.0461,852.0
226.118,801.0
226.1899,892.0
226.2618,771.0
226.3337,887.0
226.4056,832.0
226.4775,862.0
226.5494,790.0
226.6213,839.0
226.6932,785.0
226.7651,854.0
226.8369,813.0
226.9088,863.0
226.9807,771.0
227.0526,870.0
227.1245,765.0
227.1963,856.0
227.2682,789.0
227.3401,865.0
227.4119,783.0
227.4838,820.0
227.5556,798.0
227.6275,858.0
227.6993,788.0
227.7712,853.0
227.8431,768.0
227.9149,809.0
227.9867,779.0
228.0586,806.0
228.1304,762.0
228.2023,832.0
228.2741,808.0
228.3459,855.0
228.4177,809.0
228.4896,857.0
228.5614,806.0
228.6332,840.0
228.705,789.0
228.7768,872.0
228.8486,844.0
228.9205,891.0
228.9923,792.0
229.0641,858.0
229.1359,848.0
229.2077,914.0
229.2794,919.0
229.3513,972.0
229.423,1017.0
229.4948,1218.0
229.5666,1285.0
229.6384,1409.0
229.7102,1448.0
229.782,1276.0
229.8537,1001.0
229.9255,934.0
229.9973,874.0
230.069,882.0
230.1408,798.0
230.2126,850.0
230.2843,739.0
230.3561,853.0
230.4278,723.0
230.4996,837.0
230.5713,751.0
230.6431,837.0
230.7148,744.0
230.7866,841.0
230.8583,766.0
230.93,799.0
231.0018,780.0
231.0735,838.0
231.1452,702.0
231.2169,823.0
231.2887,721.0
231.3604,854.0
231.4321,771.0
231.5038,825.0
231.5755,797.0
231.6472,780.0
231.7189,759.0
231.7906,827.0
231.8624,766.0
231.9341,872.0
232.0057,750.0
232.0774,805.0
232.1491,757.0
232.2208,825.0
232.2925,766.0
232.3642,821.0
232.4359,772.0
232.5075,864.0
232.5792,738.0
232.6509,819.0
232.7225,762.0
232.7942,836.0
232.8659,744.0
232.9375,799.0
233.0092,751.0
233.0809,835.0
233.1525,744.0
233.2242,860.0
233.2958,745.0
233.3675,845.0
233.4391,797.0
233.5107,808.0
233.5824,730.0
233.654,800.0
233.7256,738.0
233.7973,832.0
233.8689,748.0
233.9405,811.0
234.0121,782.0
234.0838,805.0
234.1554,728.0
234.227,812.0
234.2986,749.0
234.3702,805.0
234.4418,732.0
234.5134,838.0
234.585,732.0
234.6566,812.0
234.7282,732.0
234.7998,816.0
234.8714,753.0
234.943,814.0
235.0146,750.0
235.0862,806.0
235.1577,744.0
235.2293,730.0
235.3009,705.0
235.3725,809.0
235.444,783.0
235.5156,794.0
235.5872,721.0
235.6587,822.0
235.7303,756.0
235.8018,845.0
235.8734,759.0
235.9449,814.0
236.0165,799.0
236.088,840.0
236.1596,774.0
236.2311,827.0
236.3026,773.0
236.3742,835.0
236.4457,754.0
236.5172,829.0
236.5887,761.0
236.6603,800.0
236.7318,757.0
236.8033,863.0
236.8748,728.0
236.9464,790.0
237.0179,782.0
237.0894,820.0
237.1609,775.0
237.2324,830.0
237.3039,753.0
237.3754,883.0
237.4469,762.0
237.5184,881.0
237.5898,781.0
237.6613,828.0
237.7328,795.0
237.8043,839.0
237.8758,802.0
237.9472,838.0
238.0187,746.0
238.0902,807.0
238.1617,793.0
238.2331,841.0
238.3046,823.0
238.376,849.0
238.4475,751.0
238.519,784.0
238.5904,798.0
238.6618,859.0
238.7333,818.0
238.8047,871.0
238.8762,770.0
238.9476,867.0
239.0191,763.0
239.0905,891.0
239.1619,781.0
239.2334,897.0
239.3048,785.0
239.3762,869.0
239.4476,801.0
239.519,830.0
239.5904,774.0
239.6619,870.0
239.7333,748.0
239.8047,832.0
239.8761,763.0
239.9475,899.0
240.0189,777.0
240.0903,876.0
240.1617,796.0
240.233,851.0
240.3044,785.0
240.3758,858.0
240.4472,778.0
240.5186,854.0
240.59,743.0
240.6613,846.0
240.7327,765.0
240.8041,861.0
240.8754,789.0
240.9468,871.0
241.0181,799.0
241.0895,844.0
241.1609,800.0
241.2322,848.0
241.3036,737.0
241.3749,905.0
241.4462,782.0
241.5176,880.0
241.5889,754.0
241.6602,872.0
241.7316,784.0
241.8029,877.0
241.8743,746.0
241.9456,853.0
242.0169,750.0
242.0882,848.0
242.1595,786.0
242.2309,831.0
242.3022,776.0
242.3735,861.0
242.4448,796.0
242.5161,861.0
242.5874,797.0
242.6587,838.0
242.73,784.0
242.8013,852.0
242.8726,746.0
242.9438,850.0
243.0151,765.0
243.0864,882.0
243.1577,740.0
243.229,853.0
243.3002,767.0
243.3715,852.0
243.4428,773.0
243.5141,834.0
243.5853,796.0
243.6566,869.0
243.7278,756.0
243.7991,846.0
243.8703,799.0
243.9416,864.0
244.0128,768.0
244.0841,826.0
244.1553,787.0
244.2266,901.0
244.2978,758.0
244.369,866.0
244.4402,823.0
244.5115,865.0
244.5827,790.0
244.6539,859.0
244.7251,801.0
244.7964,835.0
244.8676,798.0
244.9388,875.0
245.01,803.0
245.0812,874.0
245.1524,795.0
245.2236,855.0
245.2948,793.0
245.366,869.0
245.4372,761.0
245.5084,855.0
245.5796,765.0
245.6507,822.0
245.7219,764.0
245.7931,834.0
245.8643,791.0
245.9355,838.0
246.0066,769.0
246.0778,808.0
246.149,759.0
246.2201,855.0
246.2913,767.0
246.3624,866.0
246.4336,806.0
246.5047,833.0
246.5759,731.0
246.647,835.0
246.7182,775.0
246.7893,843.0
246.8605,760.0
246.9316,869.0
247.0027,701.0
247.0739,821.0
247.145,779.0
247.2161,816.0
247.2872,772.0
247.3584,848.0
247.4295,802.0
247.5006,885.0
247.5717,784.0
247.6428,920.0
247.7139,986.0
247.785,1109.0
247.8561,1304.0
247.9272,1426.0
247.9983,1202.0
248.0694,1173.0
248.1405,982.0
248.2116,958.0
248.2827,885.0
248.3537,879.0
248.4248,800.0
248.4959,877.0
248.5669,809.0
248.638,886.0
248.7091,773.0
248.7802,850.0
248.8512,758.0
248.9223,912.0
248.9933,825.0
249.0644,838.0
249.1354,759.0
249.2065,893.0
249.2775,760.0
249.3486,838.0
249.4196,747.0
249.4906,851.0
249.5617,800.0
249.6327,830.0
249.7037,751.0
249.7747,851.0
249.8458,755.0
249.9168,870.0
249.9878,769.0
250.0588,863.0
250.1298,797.0
250.2009,845.0
250.2719,831.0
250.3429,804.0
250.4138,779.0
250.4849,842.0
250.5558,776.0
250.6268,863.0
250.6978,856.0
250.7688,931.0
250.8398,897.0
250.9108,1030.0
250.9818,957.0
251.0527,1024.0
251.1237,969.0
251.1947,1126.0
251.2657,1011.0
251.3366,928.0
251.4076,854.0
251.4785,870.0
251.5495,769.0
251.6205,847.0
251.6914,800.0
251.7623,895.0
251.8333,831.0
251.9042,830.0
251.9752,753.0
252.0461,862.0
252.1171,739.0
252.188,811.0
252.2589,765.0
252.3298,860.0
252.4008,753.0
252.4717,877.0
252.5426,741.0
252.6135,846.0
252.6844,772.0
252.7553,836.0
252.8262,732.0
252.8971,834.0
252.9681,779.0
253.039,886.0
253.1098,746.0
253.1808,878.0
253.2516,781.0
253.3225,793.0
253.3934,743.0
253.4643,821.0
253.5352,745.0
253.606,810.0
253.6769,770.0
253.7478,837.0
253.8187,820.0
253.8895,868.0
253.9604,753.0
254.0312,823.0
254.1021,706.0
254.173,796.0
254.2438,726.0
254.3147,866.0
254.3855,745.0
254.4563,789.0
254.5272,768.0
254.598,909.0
254.6689,783.0
254.7397,846.0
254.8105,792.0
254.8813,832.0
254.9522,806.0
255.023,815.0
255.0938,763.0
255.1646,830.0
255.2354,748.0
255.3062,871.0
255.3771,721.0
255.4479,861.0
255.5187,755.0
255.5894,820.0
255.6603,789.0
255.731,858.0
255.8018,766.0
255.8726,879.0
255.9434,750.0
256.0142,848.0
256.085,745.0
256.1558,827.0
256.2265,741.0
256.2973,877.0
256.3681,782.0
256.4388,888.0
256.5096,763.0
256.5804,812.0
256.6511,776.0
256.7219,843.0
256.7926,788.0
256.8634,831.0
256.9341,780.0
257.0049,862.0
257.0756,779.0
257.1463,846.0
257.2171,735.0
257.2878,842.0
257.3585,793.0
257.4292,861.0
257.5,739.0
257.5707,825.0
257.6414,785.0
257.7122,854.0
257.7828,742.0
257.8535,843.0
257.9243,750.0
257.995,878.0
258.0657,805.0
258.1364,833.0
258.2071,735.0
258.2777,855.0
258.3484,771.0
258.4191,808.0
258.4898,748.0
258.5605,789.0
258.6312,739.0
258.7018,833.0
258.7725,750.0
258.8432,846.0
258.9139,716.0
258.9845,805.0
259.0552,686.0
259.1259,819.0
259.1965,787.0
259.2672,822.0
259.3378,776.0
259.4085,797.0
259.4791,747.0
259.5497,759.0
259.6204,685.0
259.691,840.0
259.7617,730.0
259.8323,861.0
259.9029,709.0
259.9735,824.0
260.0442,720.0
260.1147,781.0
260.1854,788.0
260.256,818.0
260.3267,704.0
260.3972,838.0
260.4678,750.0
260.5384,836.0
260.6091,755.0
260.6796,848.0
260.7502,761.0
260.8208,827.0
260.8914,724.0
260.962,817.0
261.0326,746.0
261.1032,792.0
261.1737,767.0
261.2444,844.0
261.3149,766.0
261.3854,827.0
261.456,738.0
261.5266,841.0
261.5971,754.0
261.6677,819.0
261.7383,759.0
261.8088,857.0
261.8794,778.0
261.9499,841.0
262.0205,807.0
262.091,815.0
262.1615,746.0
262.2321,869.0
262.3026,814.0
262.3731,899.0
262.4437,759.0
262.5142,883.0
262.5847,798.0
262.6552,839.0
262.7257,737.0
262.7962,865.0
262.8668,765.0
262.9373,883.0
263.0078,781.0
263.0783,812.0
263.1488,806.0
263.2193,846.0
263.2898,781.0
263.3603,892.0
263.4307,774.0
263.5012,885.0
263.5717,781.0
263.6422,822.0
263.7127,796.0
263.7831,845.0
263.8536,778.0
263.9241,906.0
263.9945,769.0
264.065,862.0
264.1354,766.0
264.2059,799.0
264.2764,749.0
264.3468,848.0
264.4173,761.0
264.4877,897.0
264.5581,743.0
264.6286,850.0
264.699,770.0
264.7694,832.0
264.8399,726.0
264.9103,829.0
264.9807,779.0
265.0511,843.0
265.1216,766.0
265.192,855.0
265.2625,714.0
265.3328,807.0
265.4032,739.0
265.4736,809.0
265.5441,743.0
265.6144,799.0
265.6848,711.0
265.7552,817.0
265.8256,760.0
265.896,833.0
265.9664,709.0
266.0368,847.0
266.1071,728.0
266.1775,808.0
266.2479,784.0
266.3183,804.0
266.3886,735.0
266.459,812.0
266.5294,712.0
266.5998,866.0
266.6701,716.0
266.7404,831.0
266.8108,742.0
266.8812,810.0
266.9515,731.0
267.0219,812.0
267.0922,755.0
267.1625,831.0
267.2328,757.0
267.3032,857.0
267.3735,736.0
267.4438,773.0
267.5142,731.0
267.5845,808.0
267.6548,778.0
267.7251,838.0
267.7954,696.0
267.8657,771.0
267.936,712.0
268.0063,831.0
268.0766,707.0
268.1469,834.0
268.2172,759.0
268.2875,792.0
268.3578,711.0
268.4281,809.0
268.4984,691.0
268.5686,789.0
268.6389,702.0
268.7092,751.0
268.7794,770.0
268.8498,817.0
268.92,772.0
268.9902,847.0
269.0605,725.0
269.1308,763.0
269.201,736.0
269.2713,806.0
269.3415,711.0
269.4118,802.0
269.482,721.0
269.5523,844.0
269.6225,727.0
269.6927,817.0
269.7629,763.0
269.8332,772.0
269.9034,746.0
269.9736,781.0
270.0439,732.0
270.114,833.0
270.1843,812.0
270.2545,791.0
270.3247,732.0
270.3949,808.0
270.4651,744.0
270.5353,810.0
270.6055,731.0
270.6757,792.0
270.7459,780.0
270.8161,816.0
270.8863,767.0
270.9564,825.0
271.0266,780.0
271.0968,848.0
271.167,738.0
271.2371,863.0
271.3073,788.0
271.3775,876.0
271.4476,724.0
271.5178,821.0
271.588,775.0
271.6581,832.0
271.7282,770.0
271.7984,828.0
271.8685,734.0
271.9387,823.0
272.0088,756.0
272.0789,869.0
272.1491,796.0
272.2192,823.0
272.2893,805.0
272.3595,832.0
272.4296,752.0
272.4997,842.0
272.5698,751.0
272.64,864.0
272.7101,764.0
272.7802,868.0
272.8503,799.0
272.9204,857.0
272.9904,780.0
273.0605,882.0
273.1306,788.0
273.2007,819.0
273.2708,744.0
273.3409,848.0
273.411,769.0
273.481,806.0
273.5511,783.0
273.6212,860.0
273.6913,808.0
273.7614,860.0
273.8314,815.0
273.9015,855.0
273.9715,780.0
274.0416,868.0
274.1116,808.0
274.1817,851.0
274.2517,781.0
274.3217,908.0
274.3918,804.0
274.4619,862.0
274.5319,795.0
274.602,858.0
274.6719,830.0
274.742,864.0
274.812,813.0
274.882,859.0
274.952,769.0
275.0221,885.0
275.0921,764.0
275.1621,858.0
275.2321,805.0
275.3021,884.0
275.3721,800.0
275.4421,864.0
275.5121,767.0
275.5821,880.0
275.6521,800.0
275.722,840.0
275.792,838.0
275.862,827.0
275.932,776.0
276.002,868.0
276.0719,800.0
276.1418,841.0
276.2119,775.0
276.2818,876.0
276.3517,820.0
276.4218,846.0
276.4917,806.0
276.5616,807.0
276.6316,780.0
276.7015,892.0
276.7715,787.0
276.8414,839.0
276.9113,725.0
276.9813,870.0
277.0512,732.0
277.1211,907.0
277.191,815.0
277.261,848.0
277.3309,769.0
277.4008,876.0
277.4707,771.0
277.5406,837.0
277.6105,752.0
277.6804,842.0
277.7503,768.0
277.8202,871.0
277.8901,774.0
277.96,862.0
278.0299,789.0
278.0998,872.0
278.1697,769.0
278.2396,813.0
278.3094,747.0
278.3793,836.0
278.4492,762.0
278.519,834.0
278.5889,796.0
278.6588,925.0
278.7286,794.0
278.7985,835.0
278.8683,797.0
278.9382,864.0
279.0081,780.0
279.0779,867.0
279.1477,731.0
279.2176,802.0
279.2874,778.0
279.3572,860.0
279.4271,775.0
279.4969,861.0
279.5667,789.0
279.6365,921.0
279.7063,796.0
279.7762,887.0
279.846,808.0
279.9158,886.0
279.9856,768.0
280.0554,878.0
280.1252,815.0
280.195,840.0
280.2648,751.0
280.3346,856.0
280.4044,819.0
280.4742,881.0
280.544,780.0
280.6137,901.0
280.6835,820.0
280.7533,869.0
280.8231,786.0
280.8928,912.0
280.9626,814.0
281.0323,908.0
281.1021,770.0
281.1719,909.0
281.2416,838.0
281.3114,889.0
281.3811,810.0
281.4509,869.0
281.5206,796.0
281.5904,857.0
281.6601,770.0
281.7299,919.0
281.7996,806.0
281.8693,892.0
281.939,824.0
282.0088,897.0
282.0784,795.0
282.1482,905.0
282.2179,770.0
282.2876,870.0
282.3573,816.0
282.427,895.0
282.4967,828.0
282.5664,865.0
282.6361,837.0
282.7058,892.0
282.7755,817.0
282.8452,844.0
282.9149,816.0
282.9845,900.0
283.0542,810.0
283.1239,892.0
283.1936,816.0
283.2632,924.0
283.3329,820.0
283.4026,909.0
283.4722,852.0
283.5419,932.0
283.6115,844.0
283.6812,930.0
283.7508,904.0
283.8205,974.0
283.8901,866.0
283.9597,906.0
284.0294,897.0
284.099,942.0
284.1686,809.0
284.2383,955.0
284.3079,815.0
284.3775,890.0
284.4471,811.0
284.5168,882.0
284.5864,789.0
284.656,919.0
284.7256,799.0
284.7952,857.0
284.8648,831.0
284.9344,882.0
285.004,815.0
285.0736,923.0
285.1432,798.0
285.2128,869.0
285.2823,779.0
285.3519,901.0
285.4215,795.0
285.4911,873.0
285.5606,804.0
285.6302,847.0
285.6998,768.0
285.7693,865.0
285.8389,786.0
285.9084,836.0
285.978,779.0
286.0475,802.0
286.1171,776.0
286.1866,871.0
286.2562,798.0
286.3257,871.0
286.3952,791.0
286.4648,854.0
286.5343,769.0
286.6039,871.0
286.6733,751.0
286.7429,841.0
286.8124,751.0
286.8819,880.0
286.9514,761.0
287.0209,893.0
287.0904,762.0
287.1599,907.0
287.2294,854.0
287.299,870.0
287.3684,794.0
287.4379,851.0
287.5074,765.0
287.5769,851.0
287.6464,779.0
287.7159,875.0
287.7853,759.0
287.8548,844.0
287.9243,767.0
287.9937,867.0
288.0632,809.0
288.1327,895.0
288.2021,754.0
288.2716,839.0
288.341,779.0
288.4105,848.0
288.4799,783.0
288.5493,849.0
288.6188,757.0
288.6882,873.0
288.7577,772.0
288.8271,891.0
288.8965,750.0
288.9659,910.0
289.0354,760.0
289.1048,862.0
289.1742,727.0
289.2436,877.0
289.313,807.0
289.3824,868.0
289.4518,815.0
289.5212,863.0
289.5906,734.0
289.66,871.0
289.7294,794.0
289.7988,865.0
289.8682,791.0
289.9376,849.0
290.007,815.0
290.0764,857.0
290.1457,794.0
290.2151,885.0
290.2844,770.0
290.3538,913.0
290.4232,812.0
290.4925,881.0
290.5619,800.0
290.6312,867.0
290.7006,802.0
290.7699,938.0
290.8393,782.0
290.9086,856.0
290.978,853.0
291.0473,883.0
291.1166,821.0
291.1859,863.0
291.2553,774.0
291.3246,876.0
291.3939,819.0
291.4632,896.0
291.5325,769.0
291.6018,897.0
291.6712,824.0
291.7405,889.0
291.8098,840.0
291.8791,884.0
291.9484,822.0
292.0176,908.0
292.0869,826.0
292.1562,876.0
292.2255,784.0
292.2948,881.0
292.3641,818.0
292.4334,917.0
292.5026,792.0
292.5719,902.0
292.6412,802.0
292.7104,925.0
292.7797,810.0
292.8489,926.0
292.9182,775.0
292.9875,865.0
293.0567,822.0
293.1259,929.0
293.1952,803.0
293.2644,883.0
293.3336,798.0
293.4029,875.0
293.4721,812.0
293.5413,887.0
293.6106,805.0
293.6798,913.0
293.749,811.0
293.8182,916.0
293.8875,837.0
293.9566,898.0
294.0259,802.0
294.0951,895.0
294.1642,796.0
294.2334,914.0
294.3026,827.0
294.3718,883.0
294.441,825.0
294.5102,908.0
294.5794,855.0
294.6485,909.0
294.7177,801.0
294.7869,910.0
294.8561,812.0
294.9253,911.0
294.9944,764.0
295.0636,886.0
295.1327,849.0
295.2019,862.0
295.271,767.0
295.3402,882.0
295.4093,819.0
295.4785,878.0
295.5476,829.0
295.6168,917.0
295.6859,809.0
295.755,899.0
295.8241,783.0
295.8932,920.0
295.9623,872.0
296.0315,928.0
296.1006,807.0
296.1697,911.0
296.2388,850.0
296.3079,874.0
296.377,834.0
296.4461,897.0
296.5152,781.0
296.5843,873.0
296.6534,777.0
296.7225,893.0
296.7916,802.0
296.8606,928.0
296.9297,838.0
296.9988,850.0
297.0679,796.0
297.137,913.0
297.206,816.0
297.2751,905.0
297.3441,809.0
297.4132,874.0
297.4823,832.0
297.5513,880.0
297.6204,804.0
297.6894,876.0
297.7584,813.0
297.8275,926.0
297.8965,802.0
297.9655,932.0
298.0346,820.0
298.1036,880.0
298.1726,831.0
298.2417,911.0
298.3106,804.0
298.3797,890.0
298.4487,816.0
298.5177,907.0
298.5867,819.0
298.6557,948.0
298.7247,833.0
298.7937,946.0
298.8627,863.0
298.9317,913.0
299.0007,826.0
299.0696,878.0
299.1386,805.0
299.2076,935.0
299.2766,838.0
299.3456,913.0
299.4145,881.0
299.4835,862.0
299.5524,797.0
299.6214,881.0
299.6903,840.0
299.7593,924.0
299.8282,855.0
299.8972,902.0
299.9661,824.0
300.0351,956.0
300.104,826.0
300.173,927.0
300.2419,877.0
300.3108,942.0
300.3797,816.0
300.4487,919.0
300.5176,823.0
300.5865,890.0
300.6554,863.0
300.7243,930.0
300.7932,827.0
300.8621,943.0
300.931,869.0
300.9999,883.0
301.0688,851.0
301.1377,915.0
301.2066,833.0
301.2755,938.0
301.3444,841.0
301.4132,917.0
301.4821,799.0
301.551,928.0
301.6199,879.0
301.6887,932.0
301.7576,858.0
301.8265,891.0
301.8953,840.0
301.9642,917.0
302.033,874.0
302.1019,925.0
302.1707,863.0
302.2396,918.0
302.3084,886.0
302.3772,907.0
302.4461,852.0
302.5149,943.0
302.5837,843.0
302.6526,881.0
302.7214,821.0
302.7902,934.0
302.859,869.0
302.9278,919.0
302.9966,866.0
303.0654,966.0
303.1342,817.0
303.203,884.0
303.2718,829.0
303.3406,967.0
303.4094,859.0
303.4781,904.0
303.547,874.0
303.6158,934.0
303.6845,797.0
303.7533,927.0
303.8221,848.0
303.8908,919.0
303.9596,841.0
304.0284,906.0
304.0971,879.0
304.1659,926.0
304.2346,861.0
304.3034,890.0
304.3721,803.0
304.4409,933.0
304.5096,871.0
304.5784,932.0
304.6471,789.0
304.7158,889.0
304.7845,828.0
304.8533,905.0
304.922,824.0
304.9907,910.0
305.0594,830.0
305.1281,922.0
305.1969,838.0
305.2656,942.0
305.3343,849.0
305.403,873.0
305.4717,845.0
305.5403,949.0
305.609,815.0
305.6778,908.0
305.7464,820.0
305.8151,906.0
305.8838,838.0
305.9525,875.0
306.0211,850.0
306.0898,904.0
306.1585,779.0
306.2271,921.0
306.2958,839.0
306.3645,887.0
306.4331,798.0
306.5017,885.0
306.5704,856.0
306.6391,933.0
306.7077,823.0
306.7763,931.0
306.845,840.0
306.9136,920.0
306.9822,836.0
307.0508,951.0
307.1195,881.0
307.1881,882.0
307.2567,854.0
307.3253,926.0
307.3939,821.0
307.4625,964.0
307.5312,763.0
307.5998,929.0
307.6684,831.0
307.7369,884.0
307.8055,836.0
307.8741,919.0
307.9427,800.0
308.0113,897.0
308.0799,792.0
308.1484,892.0
308.217,793.0
308.2856,900.0
308.3542,822.0
308.4227,880.0
308.4913,844.0
308.5598,940.0
308.6284,798.0
308.6969,909.0
308.7655,834.0
308.834,916.0
308.9026,860.0
308.9711,909.0
309.0396,814.0
309.1082,915.0
309.1767,808.0
309.2452,932.0
309.3138,818.0
309.3823,907.0
309.4508,827.0
309.5193,878.0
309.5878,792.0
309.6563,891.0
309.7249,787.0
309.7933,895.0
309.8618,869.0
309.9303,886.0
309.9988,819.0
310.0673,925.0
310.1358,857.0
310.2043,890.0
310.2728,797.0
310.3412,889.0
310.4097,762.0
310.4781,892.0
310.5466,837.0
310.6151,864.0
310.6836,842.0
310.752,913.0
310.8205,806.0
310.8889,916.0
310.9574,824.0
311.0258,883.0
311.0943,784.0
311.1627,891.0
311.2311,818.0
311.2996,880.0
311.368,825.0
311.4364,890.0
311.5049,799.0
311.5733,903.0
311.6417,804.0
311.7101,910.0
311.7785,823.0
311.8469,843.0
311.9153,843.0
311.9837,922.0
312.0521,851.0
312.1205,893.0
312.1889,805.0
312.2573,907.0
312.3257,785.0
312.3941,885.0
312.4624,842.0
312.5308,850.0
312.5992,747.0
312.6675,888.0
312.7359,770.0
312.8043,875.0
312.8727,793.0
312.941,887.0
313.0093,788.0
313.0777,869.0
313.1461,833.0
313.2144,886.0
313.2827,799.0
313.3511,856.0
313.4194,782.0
313.4877,882.0
313.5561,771.0
313.6244,897.0
313.6927,800.0
313.761,871.0
313.8294,703.0
313.8977,847.0
313.966,698.0
314.0343,876.0
314.1026,785.0
314.1709,881.0
314.2392,771.0
314.3075,871.0
314.3758,790.0
314.4441,874.0
314.5124,732.0
314.5806,867.0
314.6489,773.0
314.7172,893.0
314.7855,809.0
314.8537,894.0
314.922,787.0
314.9903,878.0
315.0585,804.0
315.1268,924.0
315.195,817.0
315.2633,911.0
315.3315,877.0
315.3998,892.0
315.468,794.0
315.5362,888.0
315.6045,805.0
315.6727,884.0
315.7409,800.0
315.8092,885.0
315.8774,820.0
315.9456,894.0
316.0138,832.0
316.082,894.0
316.1502,796.0
316.2184,902.0
316.2867,849.0
316.3549,876.0
316.423,865.0
316.4912,924.0
316.5594,849.0
316.6276,908.0
316.6958,828.0
316.764,944.0
316.8322,842.0
316.9003,894.0
316.9685,802.0
317.0367,962.0
317.1049,834.0
317.173,965.0
317.2411,911.0
317.3093,919.0
317.3774,843.0
317.4456,917.0
317.5137,830.0
317.5819,889.0
317.65,845.0
317.7182,925.0
317.7863,836.0
317.8545,919.0
317.9225,824.0
317.9907,914.0
318.0588,822.0
318.1269,946.0
318.195,875.0
318.2631,946.0
318.3312,849.0
318.3994,909.0
318.4675,833.0
318.5355,915.0
318.6036,835.0
318.6717,932.0
318.7398,846.0
318.8079,874.0
318.876,857.0
318.9441,905.0
319.0121,858.0
319.0802,949.0
319.1483,883.0
319.2164,936.0
319.2844,814.0
319.3525,949.0
319.4205,822.0
319.4886,981.0
319.5566,890.0
319.6247,905.0
319.6927,838.0
319.7608,951.0
319.8288,860.0
319.8968,945.0
319.9648,844.0
320.0329,949.0
320.1009,861.0
320.1689,922.0
320.237,878.0
320.305,938.0
320.373,866.0
320.441,924.0
320.509,839.0
320.577,939.0
320.645,857.0
320.713,953.0
320.781,848.0
320.849,865.0
320.917,801.0
320.985,920.0
321.0529,848.0
321.1209,940.0
321.1889,864.0
321.2568,918.0
321.3248,862.0
321.3928,884.0
321.4608,820.0
321.5287,910.0
321.5966,791.0
321.6646,941.0
321.7325,844.0
321.8005,904.0
321.8684,835.0
321.9364,925.0
322.0043,854.0
322.0722,938.0
322.1401,826.0
322.2081,929.0
322.276,840.0
322.344,911.0
322.4119,839.0
322.4797,911.0
322.5477,858.0
322.6156,930.0
322.6835,855.0
322.7514,941.0
322.8193,817.0
322.8871,935.0
322.955,861.0
323.0229,975.0
323.0908,864.0
323.1588,938.0
323.2266,841.0
323.2945,912.0
323.3623,861.0
323.4302,966.0
323.4981,829.0
323.5659,946.0
323.6338,848.0
323.7016,908.0
323.7695,837.0
323.8373,910.0
323.9052,873.0
323.973,956.0
324.0409,862.0
324.1087,962.0
324.1765,847.0
324.2444,988.0
324.3122,852.0
324.38,955.0
324.4479,835.0
324.5157,941.0
324.5834,860.0
324.6512,928.0
324.7191,901.0
324.7869,899.0
324.8547,904.0
324.9225,960.0
324.9903,894.0
325.058,968.0
325.1259,881.0
325.1936,962.0
325.2614,832.0
325.3292,965.0
325.397,870.0
325.4647,938.0
325.5325,859.0
325.6002,932.0
325.668,852.0
325.7358,941.0
325.8036,885.0
325.8713,963.0
325.939,844.0
326.0068,902.0
326.0745,852.0
326.1422,912.0
326.21,863.0
326.2777,952.0
326.3455,847.0
326.4132,942.0
326.4809,830.0
326.5486,915.0
326.6164,898.0
326.6841,919.0
326.7518,843.0
326.8195,935.0
326.8872,855.0
326.9549,957.0
327.0226,773.0
327.0903,977.0
327.158,873.0
327.2256,901.0
327.2933,890.0
327.361,952.0
327.4287,798.0
327.4964,944.0
327.5641,860.0
327.6317,939.0
327.6994,866.0
327.767,963.0
327.8347,844.0
327.9023,938.0
327.97,877.0
328.0376,959.0
328.1053,831.0
328.1729,954.0
328.2406,887.0
328.3082,922.0
328.3759,859.0
328.4435,889.0
328.5111,861.0
328.5787,909.0
328.6463,835.0
328.7139,975.0
328.7816,812.0
328.8492,946.0
328.9168,816.0
328.9843,881.0
329.052,819.0
329.1196,910.0
329.1872,809.0
329.2548,916.0
329.3224,812.0
329.3899,915.0
329.4575,797.0
329.5251,936.0
329.5927,862.0
329.6602,900.0
329.7278,807.0
329.7953,882.0
329.8629,802.0
329.9305,1005.0
329.998,836.0
330.0656,889.0
330.1331,837.0
330.2007,885.0
330.2682,814.0
330.3358,882.0
330.4033,824.0
330.4708,918.0
330.5383,850.0
330.6059,929.0
330.6734,823.0
330.7409,904.0
330.8084,777.0
330.876,917.0
330.9435,850.0
331.011,847.0
331.0784,814.0
331.1459,906.0
331.2134,824.0
331.2809,887.0
331.3484,793.0
331.4159,877.0
331.4834,797.0
331.5508,892.0
331.6183,779.0
331.6858,890.0
331.7533,792.0
331.8207,896.0
331.8882,826.0
331.9557,891.0
332.0231,815.0
332.0906,886.0
332.1581,810.0
332.2255,893.0
332.2929,771.0
332.3604,909.0
332.4278,821.0
332.4952,865.0
332.5627,808.0
332.6301,867.0
332.6975,828.0
332.7649,878.0
332.8323,856.0
332.8997,918.0
332.9672,821.0
333.0346,910.0
333.102,821.0
333.1694,916.0
333.2368,891.0
333.3042,892.0
333.3716,771.0
333.439,904.0
333.5063,824.0
333.5737,955.0
333.6411,838.0
333.7085,913.0
333.7758,818.0
333.8432,940.0
333.9106,871.0
333.9779,893.0
334.0453,758.0
334.1126,941.0
334.18,838.0
334.2473,909.0
334.3147,856.0
334.382,909.0
334.4494,848.0
334.5167,917.0
334.584,832.0
334.6514,926.0
334.7187,842.0
334.786,958.0
334.8533,864.0
334.9206,900.0
334.9879,815.0
335.0553,887.0
335.1226,813.0
335.1899,894.0
335.2572,862.0
335.3245,917.0
335.3918,829.0
335.459,924.0
335.5263,825.0
335.5936,877.0
335.6609,884.0
335.7282,964.0
335.7954,846.0
335.8627,940.0
335.93,838.0
335.9973,874.0
336.0645,834.0
336.1318,901.0
336.199,800.0
336.2662,949.0
336.3335,789.0
336.4008,889.0
336.468,738.0
336.5352,924.0
336.6024,810.0
336.6697,902.0
336.7369,822.0
336.8041,895.0
336.8714,788.0
336.9386,901.0
337.0058,819.0
337.073,919.0
337.1402,819.0
337.2074,878.0
337.2746,816.0
337.3418,887.0
337.409,813.0
337.4762,847.0
337.5434,837.0
337.6106,868.0
337.6777,797.0
337.7449,896.0
337.8121,803.0
337.8792,850.0
337.9464,820.0
338.0135,918.0
338.0807,796.0
338.1479,947.0
338.2151,769.0
338.2822,890.0
338.3493,793.0
338.4165,928.0
338.4836,843.0
338.5508,912.0
338.6179,769.0
338.6851,898.0
338.7521,812.0
338.8193,879.0
338.8864,800.0
338.9535,900.0
339.0206,809.0
339.0878,870.0
339.1548,809.0
339.222,930.0
339.289,808.0
339.3561,928.0
339.4233,819.0
339.4904,934.0
339.5574,805.0
339.6245,884.0
339.6916,784.0
339.7587,905.0
339.8257,789.0
339.8929,890.0
339.9599,794.0
340.0269,882.0
340.094,806.0
340.1611,886.0
340.2281,763.0
340.2952,849.0
340.3622,797.0
340.4293,871.0
340.4963,813.0
340.5633,825.0
340.6304,794.0
340.6974,928.0
340.7645,757.0
340.8315,886.0
340.8985,786.0
340.9655,877.0
341.0325,754.0
341.0995,888.0
341.1665,821.0
341.2335,855.0
341.3005,826.0
341.3675,897.0
341.4345,804.0
341.5015,876.0
341.5685,791.0
341.6355,935.0
341.7025,770.0
341.7694,884.0
341.8364,804.0
341.9034,843.0
341.9704,815.0
342.0373,879.0
342.1043,738.0
342.1712,914.0
342.2382,795.0
342.3051,903.0
342.3721,821.0
342.4391,903.0
342.506,819.0
342.5729,913.0
342.6398,759.0
342.7068,854.0
342.7737,761.0
342.8406,891.0
342.9076,784.0
342.9745,897.0
343.0414,801.0
343.1083,900.0
343.1752,801.0
343.2421,864.0
343.309,756.0
343.3759,882.0
343.4428,820.0
343.5097,952.0
343.5766,818.0
343.6434,878.0
343.7104,843.0
343.7772,898.0
343.8441,816.0
343.9109,887.0
343.9778,851.0
344.0447,907.0
344.1116,815.0
344.1784,838.0
344.2453,843.0
344.3121,923.0
344.3789,757.0
344.4458,915.0
344.5127,821.0
344.5795,915.0
344.6463,823.0
344.7131,902.0
344.78,795.0
344.8468,884.0
344.9136,787.0
344.9805,899.0
345.0473,827.0
345.1141,889.0
345.1809,792.0
345.2477,903.0
345.3145,821.0
345.3813,943.0
345.4481,826.0
345.5149,908.0
345.5816,831.0
345.6484,894.0
345.7152,843.0
345.782,915.0
345.8488,820.0
345.9155,879.0
345.9823,805.0
346.049,865.0
346.1158,787.0
346.1826,916.0
346.2493,867.0
346.3161,920.0
346.3828,822.0
346.4496,875.0
346.5163,796.0
346.5831,841.0
346.6498,784.0
346.7165,931.0
346.7832,807.0
346.85,896.0
346.9167,818.0
346.9834,902.0
347.0501,783.0
347.1168,863.0
347.1835,872.0
347.2502,915.0
347.3169,825.0
347.3836,875.0
347.4503,813.0
347.517,886.0
347.5837,831.0
347.6504,890.0
347.717,817.0
347.7837,932.0
347.8504,825.0
347.9171,907.0
347.9837,811.0
348.0504,904.0
348.1171,824.0
348.1837,856.0
348.2504,877.0
348.317,907.0
348.3837,814.0
348.4503,866.0
348.5169,812.0
348.5836,898.0
348.6502,809.0
348.7169,891.0
348.7835,849.0
348.8501,908.0
348.9167,849.0
348.9833,928.0
349.0499,839.0
349.1165,900.0
349.1832,836.0
349.2498,944.0
349.3163,804.0
349.3829,877.0
349.4495,828.0
349.5161,902.0
349.5827,888.0
349.6493,964.0
349.7159,790.0
349.7824,948.0
349.849,861.0
349.9156,912.0
349.9821,852.0
350.0487,911.0
350.1153,852.0
350.1818,904.0
350.2484,820.0
350.3149,942.0
350.3814,837.0
350.448,862.0
350.5146,792.0
350.5811,906.0
350.6476,835.0
350.7141,912.0
350.7807,827.0
350.8472,938.0
350.9137,823.0
350.9802,929.0
351.0467,878.0
351.1132,891.0
351.1797,831.0
351.2462,891.0
351.3127,846.0
351.3792,949.0
351.4457,823.0
351.5122,889.0
351.5787,871.0
351.6451,943.0
351.7116,832.0
351.7781,929.0
351.8446,854.0
351.911,925.0
351.9775,853.0
352.044,968.0
352.1104,862.0
352.1769,955.0
352.2433,886.0
352.3098,926.0
352.3762,852.0
352.4427,941.0
352.5091,823.0
352.5755,931.0
352.642,833.0
352.7084,930.0
352.7748,822.0
352.8412,941.0
352.9077,867.0
352.9741,952.0
353.0405,873.0
353.1068,931.0
353.1732,834.0
353.2396,961.0
353.306,874.0
353.3724,950.0
353.4388,903.0
353.5052,969.0
353.5716,872.0
353.638,977.0
353.7043,909.0
353.7707,979.0
353.8371,820.0
353.9034,952.0
353.9698,866.0
354.0362,908.0
354.1025,875.0
354.1689,954.0
354.2352,874.0
354.3016,951.0
354.3679,858.0
354.4342,1001.0
354.5005,883.0
354.5669,983.0
354.6332,873.0
354.6996,971.0
354.7659,898.0
354.8322,963.0
354.8985,901.0
354.9648,980.0
355.0311,849.0
355.0974,973.0
355.1637,867.0
355.23,948.0
355.2963,850.0
355.3625,930.0
355.4289,866.0
355.4952,955.0
355.5614,816.0
355.6277,931.0
355.694,913.0
355.7603,907.0
355.8265,871.0
355.8928,936.0
355.959,867.0
356.0253,982.0
356.0916,847.0
356.1578,951.0
356.224,806.0
356.2903,945.0
356.3565,849.0
356.4228,929.0
356.489,853.0
356.5552,959.0
356.6214,852.0
356.6876,918.0
356.7539,880.0
356.8201,974.0
356.8863,845.0
356.9525,894.0
357.0187,861.0
357.0849,966.0
357.1511,781.0
357.2173,916.0
357.2835,843.0
357.3497,918.0
357.4158,863.0
357.482,946.0
357.5482,828.0
357.6144,911.0
357.6805,847.0
357.7467,969.0
357.8128,877.0
357.879,972.0
357.9452,891.0
358.0114,993.0
358.0775,958.0
358.1436,1020.0
358.2097,976.0
358.2759,1073.0
358.342,1016.0
358.4082,1065.0
358.4743,1020.0
358.5404,1072.0
358.6065,988.0
358.6726,934.0
358.7387,862.0
358.8049,992.0
358.871,912.0
358.9371,1010.0
359.0032,873.0
359.0693,927.0
359.1353,806.0
359.2014,866.0
359.2676,833.0
359.3336,896.0
359.3997,781.0
359.4658,863.0
359.5318,805.0
359.5979,924.0
359.664,786.0
359.7301,876.0
359.7961,823.0
359.8622,898.0
359.9282,786.0
359.9943,899.0
360.0603,814.0
360.1264,925.0
360.1924,821.0
360.2585,863.0
360.3244,809.0
360.3905,887.0
360.4565,810.0
360.5225,904.0
360.5885,799.0
360.6546,912.0
360.7206,769.0
360.7866,893.0
360.8526,832.0
360.9185,857.0
360.9846,802.0
361.0506,858.0
361.1165,778.0
361.1825,878.0
361.2485,820.0
361.3145,919.0
361.3805,825.0
361.4465,879.0
361.5124,799.0
361.5784,884.0
361.6443,817.0
361.7103,914.0
361.7762,823.0
361.8422,953.0
361.9082,818.0
361.9741,870.0
362.04,795.0
362.106,893.0
362.1719,830.0
362.2379,909.0
362.3038,827.0
362.3697,919.0
362.4356,804.0
362.5015,913.0
362.5675,856.0
362.6334,935.0
362.6993,841.0
362.7652,874.0
362.8311,780.0
362.8969,912.0
362.9629,795.0
363.0287,954.0
363.0947,829.0
363.1605,934.0
363.2264,820.0
363.2923,851.0
363.3582,831.0
363.424,886.0
363.4899,793.0
363.5557,940.0
363.6216,839.0
363.6874,885.0
363.7533,869.0
363.8191,890.0
363.885,794.0
363.9508,909.0
364.0167,792.0
364.0825,908.0
364.1483,803.0
364.2142,925.0
364.28,812.0
364.3458,918.0
364.4116,794.0
364.4774,921.0
364.5432,810.0
364.609,870.0
364.6748,801.0
364.7406,933.0
364.8065,806.0
364.8722,885.0
364.938,825.0
365.0038,908.0
365.0696,830.0
365.1354,915.0
365.2011,826.0
365.2669,894.0
365.3326,796.0
365.3984,839.0
365.4642,789.0
365.5299,877.0
365.5957,785.0
365.6614,890.0
365.7272,847.0
365.7929,910.0
365.8587,800.0
365.9244,946.0
365.9902,843.0
366.0559,935.0
366.1216,819.0
366.1873,892.0
366.253,839.0
366.3188,919.0
366.3845,831.0
366.4502,893.0
366.5159,800.0
366.5816,901.0
366.6473,805.0
366.713,843.0
366.7787,780.0
366.8444,906.0
366.91,804.0
366.9757,910.0
367.0414,813.0
367.1071,904.0
367.1727,801.0
367.2384,880.0
367.3041,825.0
367.3697,902.0
367.4354,750.0
367.501,884.0
367.5667,766.0
367.6323,880.0
367.698,819.0
367.7636,891.0
367.8292,804.0
367.8948,845.0
367.9605,800.0
368.0261,861.0
368.0918,779.0
368.1573,908.0
368.223,758.0
368.2885,896.0
368.3542,784.0
368.4198,865.0
368.4854,768.0
368.551,875.0
368.6165,724.0
368.6821,838.0
368.7477,794.0
368.8133,896.0
368.8789,817.0
368.9445,858.0
369.01,759.0
369.0756,885.0
369.1411,788.0
369.2067,874.0
369.2723,759.0
369.3379,869.0
369.4034,788.0
369.4689,838.0
369.5345,749.0
369.6,867.0
369.6656,728.0
369.7311,820.0
369.7966,759.0
369.8622,868.0
369.9277,775.0
369.9932,844.0
370.0587,790.0
370.1242,857.0
370.1897,746.0
370.2552,855.0
370.3207,772.0
370.3862,843.0
370.4517,784.0
370.5172,843.0
370.5827,773.0
370.6482,858.0
370.7136,785.0
370.7791,838.0
370.8446,793.0
370.9101,882.0
370.9756,735.0
371.041,864.0
371.1064,801.0
371.1719,858.0
371.2373,835.0
371.3028,899.0
371.3683,800.0
371.4337,888.0
371.4991,821.0
371.5646,901.0
371.63,785.0
371.6954,870.0
371.7608,782.0
371.8263,850.0
371.8917,816.0
371.9571,840.0
372.0225,785.0
372.0879,877.0
372.1533,833.0
372.2187,852.0
372.2841,828.0
372.3495,920.0
372.4149,842.0
372.4803,898.0
372.5457,812.0
372.611,902.0
372.6764,780.0
372.7418,901.0
372.8071,829.0
372.8725,932.0
372.9379,817.0
373.0032,894.0
373.0686,858.0
373.1339,900.0
373.1992,780.0
373.2646,948.0
373.3299,801.0
373.3953,873.0
373.4606,848.0
373.5259,882.0
373.5912,798.0
373.6566,870.0
373.7219,786.0
373.7872,890.0
373.8525,821.0
373.9178,877.0
373.9831,803.0
374.0484,939.0
374.1137,877.0
374.179,874.0
374.2443,848.0
374.3096,915.0
374.3749,843.0
374.4401,916.0
374.5054,837.0
374.5706,882.0
374.636,837.0
374.7012,945.0
374.7665,846.0
374.8318,914.0
374.897,835.0
374.9622,880.0
375.0275,800.0
375.0927,905.0
375.158,843.0
375.2232,871.0
375.2885,884.0
375.3537,904.0
375.4189,830.0
375.4841,925.0
375.5493,843.0
375.6145,946.0
375.6797,824.0
375.745,929.0
375.8101,774.0
375.8754,883.0
375.9406,849.0
376.0057,934.0
376.071,802.0
376.1361,959.0
376.2013,839.0
376.2665,900.0
376.3317,833.0
376.3969,889.0
376.462,825.0
376.5272,941.0
376.5923,860.0
376.6575,892.0
376.7226,818.0
376.7878,932.0
376.8529,838.0
376.9181,938.0
376.9832,864.0
377.0483,883.0
377.1135,822.0
377.1786,917.0
377.2437,863.0
377.3089,940.0
377.374,839.0
377.4391,883.0
377.5042,862.0
377.5693,885.0
377.6344,858.0
377.6995,949.0
377.7646,845.0
377.8297,921.0
377.8948,886.0
377.9599,915.0
378.025,838.0
378.09,910.0
378.1551,864.0
378.2202,911.0
378.2852,829.0
378.3503,919.0
378.4154,863.0
378.4804,966.0
378.5455,859.0
378.6105,934.0
378.6755,891.0
378.7406,937.0
378.8057,905.0
378.8707,891.0
378.9357,849.0
379.0008,981.0
379.0658,858.0
379.1308,1024.0
379.1958,895.0
379.2609,936.0
379.3259,876.0
379.3908,957.0
379.4558,884.0
379.5208,955.0
379.5858,872.0
379.6509,970.0
379.7159,932.0
379.7808,944.0
379.8458,915.0
379.9108,1008.0
379.9758,875.0
380.0407,994.0
380.1057,926.0
380.1707,1049.0
380.2356,916.0
380.3006,1015.0
380.3655,927.0
380.4305,967.0
380.4955,874.0
380.5604,982.0
380.6253,917.0
380.6902,1053.0
380.7552,899.0
380.8201,1029.0
380.885,879.0
380.95,1016.0
381.0149,994.0
381.0798,1049.0
381.1447,940.0
381.2096,1075.0
381.2745,962.0
381.3394,1039.0
381.4043,980.0
381.4692,1034.0
381.5341,945.0
381.5989,1129.0
381.6638,1013.0
381.7287,1098.0
381.7936,957.0
381.8585,1132.0
381.9233,1026.0
381.9882,1066.0
382.053,1041.0
382.1179,1092.0
382.1828,1034.0
382.2476,1123.0
382.3124,1025.0
382.3773,1076.0
382.4421,1048.0
382.507,1133.0
382.5718,1011.0
382.6366,1142.0
382.7014,1088.0
382.7663,1124.0
382.8311,988.0
382.8959,1103.0
382.9607,1025.0
383.0255,1094.0
383.0903,1076.0
383.1551,1160.0
383.2199,1083.0
383.2847,1074.0
383.3495,1031.0
383.4143,1080.0
383.479,1046.0
383.5438,1133.0
383.6086,1031.0
383.6734,1117.0
383.7381,1046.0
383.8029,1161.0
383.8676,1128.0
383.9324,1183.0
383.9972,1064.0
384.0619,1133.0
384.1266,1090.0
384.1914,1204.0
384.2562,1097.0
384.3209,1116.0
384.3856,1058.0
384.4503,1205.0
384.515,1152.0
384.5797,1250.0
384.6445,1150.0
384.7092,1221.0
384.7739,1240.0
384.8386,1364.0
384.9033,1283.0
384.968,1405.0
385.0327,1312.0
385.0974,1316.0
385.162,1224.0
385.2267,1325.0
385.2914,1290.0
385.3561,1406.0
385.4208,1278.0
385.4854,1250.0
385.5501,1218.0
385.6147,1303.0
385.6794,1251.0
385.7441,1313.0
385.8087,1253.0
385.8734,1367.0
385.938,1299.0
386.0027,1471.0
386.0673,1476.0
386.1319,1458.0
386.1966,1193.0
386.2612,1233.0
386.3258,1133.0
386.3904,1210.0
386.455,1191.0
386.5196,1240.0
386.5843,1226.0
386.6489,1338.0
386.7135,1297.0
386.778,1413.0
386.8426,1396.0
386.9072,1619.0
386.9718,1591.0
387.0364,1798.0
387.101,1566.0
387.1655,1288.0
387.2301,1109.0
387.2946,1143.0
387.3593,1029.0
387.4238,1157.0
387.4884,1104.0
387.5529,1154.0
387.6175,1169.0
387.682,1310.0
387.7466,1252.0
387.8111,1408.0
387.8756,1377.0
387.9402,1510.0
388.0047,1539.0
388.0692,1706.0
388.1337,1802.0
388.1982,2140.0
388.2628,1961.0
388.3272,1457.0
388.3918,1045.0
388.4563,1049.0
388.5208,914.0
388.5852,988.0
388.6497,860.0
388.7142,930.0
388.7787,878.0
388.8432,923.0
388.9077,820.0
388.9721,912.0
389.0366,827.0
389.1011,909.0
389.1655,809.0
389.23,910.0
389.2944,868.0
389.3589,925.0
389.4233,840.0
389.4878,888.0
389.5522,843.0
389.6167,920.0
389.6811,844.0
389.7455,952.0
389.8099,850.0
389.8744,919.0
389.9388,900.0
390.0032,934.0
390.0676,858.0
390.132,939.0
390.1964,865.0
390.2608,900.0
390.3252,809.0
390.3896,865.0
390.454,859.0
390.5184,926.0
390.5827,830.0
390.6471,926.0
390.7115,850.0
390.7759,923.0
390.8402,849.0
390.9046,947.0
390.9689,885.0
391.0333,899.0
391.0977,883.0
391.162,936.0
391.2264,825.0
391.2907,964.0
391.355,927.0
391.4193,919.0
391.4837,838.0
391.548,952.0
391.6123,856.0
391.6767,937.0
391.741,861.0
391.8053,999.0
391.8696,844.0
391.9339,960.0
391.9982,888.0
392.0625,966.0
392.1268,903.0
392.1911,926.0
392.2553,844.0
392.3196,942.0
392.3839,869.0
392.4482,933.0
392.5125,867.0
392.5767,946.0
392.641,885.0
392.7053,944.0
392.7695,880.0
392.8338,1033.0
392.898,909.0
392.9622,984.0
393.0265,876.0
393.0908,932.0
393.155,934.0
393.2192,952.0
393.2834,974.0
393.3477,978.0
393.4118,876.0
393.476,957.0
393.5403,860.0
393.6045,965.0
393.6687,869.0
393.7329,938.0
393.7971,868.0
393.8613,966.0
393.9255,830.0
393.9897,944.0
394.0539,851.0
394.118,960.0
394.1822,829.0
394.2464,939.0
394.3105,886.0
394.3747,963.0
394.4389,882.0
394.503,906.0
394.5672,825.0
394.6313,931.0
394.6954,897.0
394.7596,915.0
394.8238,875.0
394.8879,928.0
394.952,849.0
395.0161,870.0
395.0803,843.0
395.1444,937.0
395.2085,858.0
395.2726,956.0
395.3367,851.0
395.4008,923.0
395.4649,802.0
395.529,929.0
395.5931,834.0
395.6572,923.0
395.7213,753.0
395.7854,933.0
395.8495,806.0
395.9135,891.0
395.9776,857.0
396.0417,950.0
396.1057,836.0
396.1698,917.0
396.2339,815.0
396.2979,894.0
396.362,789.0
396.426,918.0
396.4901,904.0
396.5541,899.0
396.6181,835.0
396.6821,904.0
396.7462,873.0
396.8102,926.0
396.8743,821.0
396.9383,929.0
397.0023,870.0
397.0662,870.0
397.1302,827.0
397.1943,880.0
397.2583,794.0
397.3223,869.0
397.3862,879.0
397.4502,891.0
397.5142,792.0
397.5782,847.0
397.6422,842.0
397.7061,869.0
397.7701,807.0
397.8341,886.0
397.898,769.0
397.962,897.0
398.0259,806.0
398.0899,903.0
398.1538,821.0
398.2178,870.0
398.2817,822.0
398.3456,851.0
398.4096,779.0
398.4735,880.0
398.5374,837.0
398.6013,925.0
398.6653,855.0
398.7292,893.0
398.7931,864.0
398.857,910.0
398.9209,806.0
398.9848,927.0
399.0487,842.0
399.1125,926.0
399.1765,871.0
399.2404,899.0
399.3042,843.0
399.3681,929.0
399.432,843.0
399.4958,945.0
399.5597,811.0
399.6236,935.0
399.6875,898.0
399.7513,877.0
399.8152,922.0
399.879,1001.0
399.9428,893.0
400.0067,973.0
400.0705,888.0
400.1343,963.0
400.1982,834.0
400.262,966.0
400.3258,852.0
400.3896,924.0
400.4534,851.0
400.5172,927.0
400.581,815.0
400.6448,946.0
400.7086,830.0
400.7724,929.0
400.8362,819.0
400.9,933.0
400.9638,821.0
401.0276,923.0
401.0913,868.0
401.1551,957.0
401.2189,838.0
401.2826,968.0
401.3464,871.0
401.4102,960.0
401.4739,834.0
401.5376,989.0
401.6014,856.0
401.6651,929.0
401.7289,832.0
401.7926,949.0
401.8564,854.0
401.92,912.0
401.9838,860.0
402.0475,914.0
402.1112,922.0
402.175,941.0
402.2386,826.0
402.3023,912.0
402.366,835.0
402.4297,991.0
402.4934,890.0
402.5571,1003.0
402.6208,938.0
402.6845,915.0
402.7482,853.0
402.8118,945.0
402.8755,869.0
402.9392,953.0
403.0028,903.0
403.0665,948.0
403.1301,902.0
403.1938,958.0
403.2574,896.0
403.3211,971.0
403.3847,874.0
403.4484,943.0
403.512,865.0
403.5756,950.0
403.6393,911.0
403.7029,933.0
403.7665,873.0
403.8301,958.0
403.8937,873.0
403.9573,927.0
404.0209,854.0
404.0845,990.0
404.1481,797.0
404.2117,988.0
404.2753,905.0
404.3389,955.0
404.4024,877.0
404.466,942.0
404.5296,884.0
404.5932,946.0
404.6567,903.0
404.7203,902.0
404.7838,899.0
404.8474,964.0
404.9109,881.0
404.9745,947.0
405.0381,879.0
405.1016,1011.0
405.1651,880.0
405.2286,978.0
405.2922,911.0
405.3557,961.0
405.4193,879.0
405.4828,928.0
405.5462,889.0
405.6097,965.0
405.6733,880.0
405.7368,945.0
405.8003,866.0
405.8638,968.0
405.9272,912.0
405.9907,964.0
406.0542,882.0
406.1177,1013.0
406.1812,874.0
406.2446,956.0
406.3081,868.0
406.3716,979.0
406.435,892.0
406.4985,933.0
406.562,864.0
406.6254,1010.0
406.6888,867.0
406.7523,950.0
406.8157,878.0
406.8791,984.0
406.9426,903.0
407.006,929.0
407.0694,907.0
407.1328,1003.0
407.1962,936.0
407.2597,947.0
407.3231,946.0
407.3865,1021.0
407.4499,933.0
407.5133,1034.0
407.5767,913.0
407.64,961.0
407.7034,958.0
407.7668,986.0
407.8302,923.0
407.8936,1030.0
407.9569,928.0
408.0203,989.0
408.0836,941.0
408.147,1053.0
408.2104,899.0
408.2737,1036.0
408.3371,918.0
408.4004,1016.0
408.4637,948.0
408.5271,1027.0
408.5905,922.0
408.6537,955.0
408.7171,922.0
408.7804,982.0
408.8437,897.0
408.907,995.0
408.9703,959.0
409.0336,991.0
409.0969,907.0
409.1602,996.0
409.2235,933.0
409.2868,983.0
409.3501,929.0
409.4134,1017.0
409.4767,952.0
409.5399,1038.0
409.6032,941.0
409.6665,986.0
409.7297,960.0
409.793,1000.0
409.8563,907.0
409.9195,990.0
409.9827,957.0
410.046,980.0
410.1092,918.0
410.1725,995.0
410.2357,921.0
410.299,974.0
410.3622,922.0
410.4254,1001.0
410.4886,899.0
410.5518,980.0
410.615,913.0
410.6782,1011.0
410.7414,934.0
410.8046,1019.0
410.8678,904.0
410.931,964.0
410.9942,847.0
411.0574,1017.0
411.1205,873.0
411.1837,954.0
411.2469,910.0
411.3101,965.0
411.3733,882.0
411.4364,952.0
411.4995,907.0
411.5627,949.0
411.6259,830.0
411.689,983.0
411.7521,898.0
411.8153,983.0
411.8784,886.0
411.9415,981.0
412.0046,927.0
412.0678,971.0
412.1309,869.0
412.194,957.0
412.2571,872.0
412.3203,949.0
412.3833,859.0
412.4464,994.0
412.5096,898.0
412.5727,918.0
412.6357,888.0
412.6988,975.0
412.7619,891.0
412.825,981.0
412.8881,853.0
412.9511,944.0
413.0142,901.0
413.0772,991.0
413.1403,844.0
413.2033,986.0
413.2664,886.0
413.3294,904.0
413.3925,887.0
413.4555,998.0
413.5186,847.0
413.5816,973.0
413.6446,840.0
413.7076,951.0
413.7707,833.0
413.8337,969.0
413.8967,816.0
413.9597,974.0
414.0227,913.0
414.0857,918.0
414.1487,870.0
414.2117,926.0
414.2747,845.0
414.3376,1000.0
414.4006,851.0
414.4636,993.0
414.5266,891.0
414.5896,944.0
414.6525,910.0
414.7155,1003.0
414.7784,898.0
414.8414,987.0
414.9044,916.0
414.9673,1017.0
415.0303,953.0
415.0932,1015.0
415.1561,943.0
415.2191,990.0
415.282,900.0
415.3449,1000.0
415.4079,839.0
415.4708,981.0
415.5336,935.0
415.5966,1012.0
415.6595,972.0
415.7224,1041.0
415.7853,882.0
415.8482,963.0
415.9111,912.0
415.9739,940.0
416.0368,896.0
416.0997,967.0
416.1626,945.0
416.2255,962.0
416.2883,936.0
416.3512,968.0
416.414,925.0
416.4769,1000.0
416.5397,893.0
416.6026,1020.0
416.6654,976.0
416.7283,1004.0
416.7911,942.0
416.8539,982.0
416.9167,880.0
416.9796,976.0
417.0424,934.0
417.1052,1005.0
417.168,913.0
417.2308,988.0
417.2936,858.0
417.3564,1017.0
417.4193,896.0
417.4821,912.0
417.5448,902.0
417.6076,985.0
417.6704,916.0
417.7332,990.0
417.796,916.0
417.8587,1015.0
417.9215,954.0
417.9842,1006.0
418.047,939.0
418.1098,978.0
418.1725,913.0
418.2353,941.0
418.298,879.0
418.3607,937.0
418.4235,851.0
418.4862,998.0
418.549,870.0
418.6117,985.0
418.6744,864.0
418.7371,943.0
418.7998,871.0
418.8625,913.0
418.9252,868.0
418.9879,1002.0
419.0507,843.0
419.1133,963.0
419.176,862.0
419.2387,984.0
419.3014,891.0
419.3641,981.0
419.4268,939.0
419.4894,999.0
419.5521,928.0
419.6147,1029.0
419.6774,942.0
419.7401,959.0
419.8027,893.0
419.8654,966.0
419.928,880.0
419.9906,953.0
420.0533,869.0
420.1159,898.0
420.1785,897.0
420.2411,910.0
420.3038,828.0
420.3664,958.0
420.429,881.0
420.4916,960.0
420.5542,867.0
420.6168,952.0
420.6794,899.0
420.742,932.0
420.8046,892.0
420.8672,931.0
420.9297,902.0
420.9923,941.0
421.0549,910.0
421.1175,988.0
421.18,835.0
421.2426,911.0
421.3052,924.0
421.3677,983.0
421.4303,916.0
421.4928,1049.0
421.5554,891.0
421.6179,948.0
421.6804,829.0
421.743,900.0
421.8055,896.0
421.868,919.0
421.9305,818.0
421.993,898.0
422.0556,812.0
422.1181,832.0
422.1806,783.0
422.2431,895.0
422.3055,801.0
422.368,922.0
422.4305,858.0
422.493,929.0
422.5555,857.0
422.618,898.0
422.6805,823.0
422.7429,899.0
422.8054,836.0
422.8679,910.0
422.9303,815.0
422.9928,895.0
423.0552,835.0
423.1177,928.0
423.1801,851.0
423.2425,917.0
423.305,881.0
423.3674,869.0
423.4298,828.0
423.4922,941.0
423.5547,810.0
423.617,948.0
423.6795,838.0
423.7419,958.0
423.8043,862.0
423.8667,927.0
423.9291,888.0
423.9915,931.0
424.0538,881.0
424.1163,917.0
424.1786,853.0
424.241,958.0
424.3034,859.0
424.3658,992.0
424.4281,918.0
424.4905,980.0
424.5529,899.0
424.6152,965.0
424.6775,906.0
424.7399,969.0
424.8022,978.0
424.8646,963.0
424.9269,900.0
424.9892,959.0
425.0515,924.0
425.1139,959.0
425.1762,901.0
425.2385,978.0
425.3008,913.0
425.3631,986.0
425.4254,913.0
425.4877,986.0
425.55,945.0
425.6123,984.0
425.6746,933.0
425.7369,1022.0
425.7992,955.0
425.8614,1032.0
425.9237,940.0
425.9859,988.0
426.0482,977.0
426.1105,997.0
426.1727,948.0
426.235,990.0
426.2972,898.0
426.3595,998.0
426.4217,904.0
426.4839,1048.0
426.5462,933.0
426.6084,1005.0
426.6706,925.0
426.7328,1060.0
426.795,940.0
426.8573,964.0
426.9195,880.0
426.9817,978.0
427.0439,936.0
427.1061,992.0
427.1683,928.0
427.2305,930.0
427.2927,917.0
427.3549,1020.0
427.417,898.0
427.4792,994.0
427.5413,887.0
427.6035,972.0
427.6657,868.0
427.7278,965.0
427.79,897.0
427.8521,977.0
427.9142,912.0
427.9764,1010.0
428.0386,894.0
428.1007,978.0
428.1628,910.0
428.2249,990.0
428.287,891.0
428.3492,977.0
428.4113,867.0
428.4734,1015.0
428.5355,933.0
428.5976,953.0
428.6597,854.0
428.7218,955.0
428.7839,863.0
428.846,952.0
428.9081,884.0
428.9702,945.0
429.0322,841.0
429.0943,913.0
429.1563,866.0
429.2184,938.0
429.2805,858.0
429.3425,912.0
429.4046,856.0
429.4666,925.0
429.5287,835.0
429.5908,927.0
429.6528,818.0
429.7148,920.0
429.7768,854.0
429.8388,879.0
429.9008,831.0
429.9629,901.0
430.0249,802.0
430.0869,945.0
430.1489,849.0
430.2109,925.0
430.2729,804.0
430.3349,897.0
430.3969,778.0
430.4589,890.0
430.5208,836.0
430.5828,884.0
430.6448,812.0
430.7068,877.0
430.7688,849.0
430.8307,920.0
430.8926,840.0
430.9546,912.0
431.0165,820.0
431.0785,884.0
431.1404,830.0
431.2024,906.0
431.2643,828.0
431.3262,936.0
431.3881,866.0
431.4501,901.0
431.512,803.0
431.5739,908.0
431.6358,794.0
431.6977,863.0
431.7596,796.0
431.8215,897.0
431.8834,798.0
431.9453,897.0
432.0072,853.0
432.0691,890.0
432.131,806.0
432.1928,895.0
432.2547,782.0
432.3165,858.0
432.3784,715.0
432.4403,875.0
432.5021,801.0
432.564,893.0
432.6258,771.0
432.6876,885.0
432.7495,783.0
432.8113,854.0
432.8732,752.0
432.935,849.0
432.9968,804.0
433.0586,855.0
433.1204,803.0
433.1823,880.0
433.2441,822.0
433.3059,830.0
433.3677,795.0
433.4295,835.0
433.4912,808.0
433.5531,885.0
433.6148,799.0
433.6766,879.0
433.7384,751.0
433.8001,850.0
433.8619,792.0
433.9237,937.0
433.9854,763.0
434.0472,859.0
434.1089,825.0
434.1707,850.0
434.2324,818.0
434.2942,889.0
434.3559,785.0
434.4177,956.0
434.4794,801.0
434.5411,927.0
434.6028,802.0
434.6645,870.0
434.7263,836.0
434.788,930.0
434.8497,845.0
434.9113,909.0
434.973,807.0
435.0347,900.0
435.0965,785.0
435.1581,874.0
435.2198,828.0
435.2815,889.0
435.3431,778.0
435.4048,856.0
435.4665,799.0
435.5282,894.0
435.5898,810.0
435.6515,927.0
435.7131,788.0
435.7747,877.0
435.8363,811.0
435.898,913.0
435.9597,821.0
436.0213,888.0
436.0829,832.0
436.1445,911.0
436.2061,856.0
436.2678,862.0
436.3294,842.0
436.391,882.0
436.4525,847.0
436.5141,874.0
436.5757,835.0
436.6373,891.0
436.6989,811.0
436.7605,955.0
436.8221,845.0
436.8836,923.0
436.9452,841.0
437.0067,903.0
437.0684,869.0
437.1299,888.0
437.1914,795.0
437.253,890.0
437.3145,819.0
437.3761,936.0
437.4376,822.0
437.4992,877.0
437.5607,799.0
437.6222,905.0
437.6837,778.0
437.7452,881.0
437.8067,842.0
437.8683,891.0
437.9298,878.0
437.9913,851.0
438.0528,794.0
438.1143,843.0
438.1757,833.0
438.2372,867.0
438.2987,829.0
438.3602,869.0
438.4217,813.0
438.4831,878.0
438.5446,823.0
438.6061,900.0
438.6675,808.0
438.729,868.0
438.7904,755.0
438.8519,885.0
438.9133,784.0
438.9747,888.0
439.0362,812.0
439.0976,857.0
439.159,764.0
439.2204,890.0
439.2819,724.0
439.3433,898.0
439.4047,770.0
439.4661,894.0
439.5275,849.0
439.5889,854.0
439.6503,797.0
439.7116,867.0
439.7731,809.0
439.8345,924.0
439.8958,809.0
439.9572,858.0
440.0186,809.0
440.0799,880.0
440.1413,788.0
440.2027,894.0
440.264,811.0
440.3253,888.0
440.3867,802.0
440.448,890.0
440.5093,835.0
440.5707,897.0
440.632,794.0
440.6934,877.0
440.7546,783.0
440.816,901.0
440.8773,796.0
440.9386,927.0
440.9999,784.0
441.0612,905.0
441.1225,868.0
441.1838,834.0
441.2451,797.0
441.3063,876.0
441.3677,846.0
441.429,898.0
441.4902,777.0
441.5515,908.0
441.6127,792.0
441.674,859.0
441.7353,851.0
441.7965,894.0
441.8578,780.0
441.919,888.0
441.9802,803.0
442.0414,893.0
442.1027,789.0
442.164,896.0
442.2252,818.0
442.2864,835.0
442.3476,822.0
442.4088,882.0
442.47,820.0
442.5312,913.0
442.5924,831.0
442.6536,903.0
442.7148,823.0
442.776,840.0
442.8372,830.0
442.8984,857.0
442.9596,809.0
443.0207,917.0
443.0819,804.0
443.143,861.0
443.2042,780.0
443.2653,844.0
443.3265,842.0
443.3877,846.0
443.4488,818.0
443.5099,864.0
443.5711,808.0
443.6322,933.0
443.6934,817.0
443.7545,927.0
443.8156,852.0
443.8767,864.0
443.9378,830.0
443.9989,896.0
444.0601,781.0
444.1212,932.0
444.1822,810.0
444.2433,877.0
444.3044,850.0
444.3654,860.0
444.4265,790.0
444.4877,871.0
444.5487,830.0
444.6098,903.0
444.6708,828.0
444.7319,885.0
444.7929,773.0
444.854,869.0
444.915,845.0
444.9761,908.0
445.0371,778.0
445.0981,888.0
445.1592,750.0
445.2203,902.0
445.2812,814.0
445.3423,875.0
445.4033,822.0
445.4643,873.0
445.5253,833.0
445.5862,891.0
445.6473,809.0
445.7083,873.0
445.7693,832.0
445.8303,846.0
445.8912,821.0
445.9522,838.0
446.0132,804.0
446.0742,884.0
446.1352,805.0
446.1961,874.0
446.257,791.0
446.318,890.0
446.379,820.0
446.4399,870.0
446.5009,765.0
446.5618,863.0
446.6227,777.0
446.6836,866.0
446.7446,799.0
446.8055,796.0
446.8664,789.0
446.9273,882.0
446.9883,795.0
447.0491,851.0
447.11,780.0
447.171,824.0
447.2319,743.0
447.2927,869.0
447.3536,781.0
447.4145,870.0
447.4753,768.0
447.5363,829.0
447.5971,744.0
447.658,828.0
447.7188,733.0
447.7797,826.0
447.8405,736.0
447.9014,836.0
447.9623,696.0
448.0231,776.0
448.0839,775.0
448.1447,786.0
448.2056,712.0
448.2664,858.0
448.3272,784.0
448.3881,857.0
448.4489,781.0
448.5096,804.0
448.5705,711.0
448.6312,818.0
448.6921,754.0
448.7529,834.0
448.8137,714.0
448.8744,795.0
448.9352,741.0
448.9959,847.0
449.0567,767.0
449.1175,821.0
449.1783,731.0
449.239,842.0
449.2998,757.0
449.3605,831.0
449.4213,764.0
449.4821,813.0
449.5428,743.0
449.6035,814.0
449.6642,713.0
449.725,798.0
449.7857,728.0
449.8464,831.0
449.9071,705.0
449.9679,820.0
450.0285,737.0
450.0892,866.0
450.1499,767.0
450.2106,778.0
450.2714,712.0
450.332,818.0
450.3927,695.0
450.4534,819.0
450.514,735.0
450.5747,842.0
450.6354,771.0
450.696,847.0
450.7567,733.0
450.8174,831.0
450.878,723.0
450.9386,829.0
450.9993,739.0
451.0599,814.0
451.1206,693.0
451.1812,821.0
451.2418,756.0
451.3024,771.0
451.363,733.0
451.4236,808.0
451.4843,744.0
451.5449,836.0
451.6054,777.0
451.666,806.0
451.7267,730.0
451.7873,804.0
451.8478,710.0
451.9084,822.0
451.969,675.0
452.0295,775.0
452.0901,760.0
452.1507,767.0
452.2113,695.0
452.2718,763.0
452.3324,707.0
452.3929,794.0
452.4534,663.0
452.5139,789.0
452.5745,697.0
452.635,813.0
452.6956,751.0
452.7561,799.0
452.8166,776.0
452.8771,790.0
452.9377,710.0
452.9981,809.0
453.0586,741.0
453.1191,826.0
453.1796,743.0
453.2401,799.0
453.3006,736.0
453.3611,770.0
453.4216,717.0
453.4821,815.0
453.5425,747.0
453.6029,804.0
453.6634,751.0
453.7239,818.0
453.7844,759.0
453.8448,825.0
453.9052,736.0
453.9656,785.0
454.0261,769.0
454.0866,853.0
454.147,686.0
454.2074,818.0
454.2678,738.0
454.3282,802.0
454.3886,752.0
454.449,863.0
454.5095,725.0
454.5699,845.0
454.6302,741.0
454.6906,842.0
454.751,749.0
454.8114,844.0
454.8718,774.0
454.9322,830.0
454.9925,719.0
455.0529,830.0
455.1133,784.0
455.1736,849.0
455.234,765.0
455.2943,873.0
455.3547,779.0
455.415,854.0
455.4753,780.0
455.5357,856.0
455.5959,728.0
455.6563,891.0
455.7167,737.0
455.777,838.0
455.8373,732.0
455.8976,818.0
455.9579,773.0
456.0182,820.0
456.0785,731.0
456.1388,842.0
456.1991,723.0
456.2593,864.0
456.3196,760.0
456.3799,839.0
456.4402,781.0
456.5005,833.0
456.5607,740.0
456.621,798.0
456.6812,713.0
456.7414,812.0
456.8018,746.0
456.862,808.0
456.9222,765.0
456.9825,828.0
457.0426,726.0
457.1028,821.0
457.1631,736.0
457.2234,836.0
457.2835,760.0
457.3438,855.0
457.404,758.0
457.4641,820.0
457.5244,772.0
457.5846,828.0
457.6447,745.0
457.7049,815.0
457.7651,754.0
457.8253,858.0
457.8854,736.0
457.9456,780.0
458.0058,715.0
458.0659,811.0
458.1261,727.0
458.1862,850.0
458.2464,746.0
458.3066,881.0
458.3667,805.0
458.4268,827.0
458.4869,779.0
458.5471,705.0
458.6072,610.0
458.6674,704.0
458.7274,577.0
458.7876,679.0
458.8477,608.0
458.9077,717.0
458.9679,598.0
459.0279,700.0
459.0881,649.0
459.1481,680.0
459.2082,608.0
459.2683,725.0
459.3283,630.0
459.3884,668.0
459.4485,628.0
459.5086,654.0
459.5686,610.0
459.6287,681.0
459.6887,612.0
459.7487,706.0
459.8088,661.0
459.8688,671.0
459.9289,634.0
459.9889,712.0
460.0489,595.0
460.1089,694.0
460.1689,607.0
460.229,683.0
460.289,586.0
