Laser settings:
	Diode frequency:	5 Hz
	Pulses fired:		105
	Q-Switch blanking:	5
	Q-Switch delay:		201 μs
	Q-Switch presync:	1 μs
Spectrometer settings:
	Integration time:	0.0090 ms
	Integration delay:	0.000 ns
	Averaging:		1
	Trigger mode:		External
	Dynamic Dark Correction:		Disabled


wavelength,intensity
184.9409,623.0
185.0142,607.0
185.0875,704.0
185.1608,646.0
185.2341,681.0
185.3074,625.0
185.3807,717.0
185.454,644.0
185.5273,691.0
185.6006,626.0
185.6739,660.0
185.7472,604.0
185.8205,712.0
185.8938,617.0
185.9671,723.0
186.0403,600.0
186.1136,684.0
186.1869,594.0
186.2601,682.0
186.3334,599.0
186.4067,700.0
186.4799,590.0
186.5532,689.0
186.6265,605.0
186.6997,693.0
186.773,634.0
186.8462,713.0
186.9195,638.0
186.9928,672.0
187.066,610.0
187.1392,697.0
187.2125,588.0
187.2857,671.0
187.3589,648.0
187.4322,705.0
187.5054,662.0
187.5786,716.0
187.6519,651.0
187.7251,726.0
187.7983,674.0
187.8715,713.0
187.9447,640.0
188.018,749.0
188.0912,619.0
188.1644,717.0
188.2376,634.0
188.3108,720.0
188.384,652.0
188.4572,715.0
188.5304,652.0
188.6036,693.0
188.6768,672.0
188.75,748.0
188.8232,639.0
188.8963,686.0
188.9695,646.0
189.0427,694.0
189.1159,642.0
189.1891,727.0
189.2623,697.0
189.3354,783.0
189.4086,645.0
189.4818,725.0
189.5549,677.0
189.6281,736.0
189.7012,669.0
189.7744,710.0
189.8476,636.0
189.9207,740.0
189.9939,650.0
190.067,710.0
190.1402,699.0
190.2133,706.0
190.2864,676.0
190.3596,727.0
190.4327,625.0
190.5059,709.0
190.579,709.0
190.6521,726.0
190.7253,679.0
190.7984,758.0
190.8715,676.0
190.9446,754.0
191.0177,665.0
191.0908,727.0
191.164,669.0
191.2371,782.0
191.3102,659.0
191.3833,736.0
191.4564,639.0
191.5295,766.0
191.6026,667.0
191.6757,805.0
191.7488,688.0
191.8219,735.0
191.895,693.0
191.968,763.0
192.0411,672.0
192.1142,770.0
192.1873,641.0
192.2604,780.0
192.3334,697.0
192.4065,784.0
192.4796,721.0
192.5527,798.0
192.6257,712.0
192.6988,836.0
192.7718,764.0
192.8449,812.0
192.918,903.0
192.991,1058.0
193.064,1134.0
193.1371,1186.0
193.2101,1044.0
193.2832,1049.0
193.3562,869.0
193.4292,875.0
193.5023,755.0
193.5753,888.0
193.6484,760.0
193.7214,808.0
193.7944,725.0
193.8674,827.0
193.9405,720.0
194.0135,826.0
194.0865,698.0
194.1595,840.0
194.2325,751.0
194.3055,778.0
194.3785,745.0
194.4515,787.0
194.5246,712.0
194.5975,837.0
194.6705,725.0
194.7435,774.0
194.8165,677.0
194.8895,788.0
194.9625,716.0
195.0355,772.0
195.1085,701.0
195.1815,770.0
195.2544,716.0
195.3274,752.0
195.4004,722.0
195.4734,748.0
195.5463,667.0
195.6193,780.0
195.6923,746.0
195.7652,779.0
195.8382,722.0
195.9111,783.0
195.9841,714.0
196.057,827.0
196.13,737.0
196.2029,803.0
196.2759,717.0
196.3488,773.0
196.4218,707.0
196.4947,806.0
196.5676,745.0
196.6406,818.0
196.7135,710.0
196.7864,769.0
196.8593,687.0
196.9323,790.0
197.0052,759.0
197.0781,783.0
197.151,716.0
197.2239,765.0
197.2969,701.0
197.3697,759.0
197.4427,665.0
197.5156,774.0
197.5885,722.0
197.6614,766.0
197.7343,693.0
197.8072,794.0
197.88,673.0
197.9529,763.0
198.0258,667.0
198.0987,816.0
198.1716,691.0
198.2445,778.0
198.3173,731.0
198.3902,751.0
198.4631,702.0
198.5359,819.0
198.6088,637.0
198.6817,771.0
198.7545,709.0
198.8274,749.0
198.9003,721.0
198.9731,720.0
199.046,699.0
199.1188,780.0
199.1917,694.0
199.2645,796.0
199.3373,748.0
199.4102,771.0
199.483,724.0
199.5559,749.0
199.6287,706.0
199.7015,774.0
199.7744,735.0
199.8472,782.0
199.92,688.0
199.9928,767.0
200.0656,715.0
200.1385,767.0
200.2113,709.0
200.2841,782.0
200.3569,677.0
200.4297,767.0
200.5025,681.0
200.5753,766.0
200.6481,737.0
200.7209,790.0
200.7937,697.0
200.8665,748.0
200.9393,711.0
201.0121,762.0
201.0848,691.0
201.1576,838.0
201.2304,702.0
201.3032,769.0
201.3759,709.0
201.4487,767.0
201.5215,733.0
201.5943,771.0
201.667,742.0
201.7398,764.0
201.8125,697.0
201.8853,782.0
201.958,689.0
202.0308,797.0
202.1035,680.0
202.1763,820.0
202.249,741.0
202.3218,788.0
202.3945,712.0
202.4673,786.0
202.54,710.0
202.6127,792.0
202.6855,704.0
202.7582,810.0
202.8309,695.0
202.9036,757.0
202.9764,672.0
203.0491,754.0
203.1218,715.0
203.1945,765.0
203.2672,722.0
203.3399,814.0
203.4126,697.0
203.4853,807.0
203.558,682.0
203.6307,779.0
203.7034,697.0
203.7761,778.0
203.8488,731.0
203.9215,799.0
203.9942,703.0
204.0669,780.0
204.1395,689.0
204.2122,791.0
204.2849,725.0
204.3576,759.0
204.4302,700.0
204.5029,778.0
204.5756,729.0
204.6482,750.0
204.7209,681.0
204.7935,802.0
204.8662,683.0
204.9389,822.0
205.0115,695.0
205.0842,818.0
205.1568,727.0
205.2294,717.0
205.3021,733.0
205.3747,779.0
205.4474,703.0
205.52,745.0
205.5926,682.0
205.6653,812.0
205.7379,689.0
205.8105,771.0
205.8831,734.0
205.9557,761.0
206.0284,720.0
206.101,760.0
206.1736,697.0
206.2462,761.0
206.3188,664.0
206.3914,756.0
206.464,686.0
206.5366,768.0
206.6092,694.0
206.6818,786.0
206.7544,750.0
206.827,769.0
206.8996,704.0
206.9721,775.0
207.0447,705.0
207.1173,787.0
207.1899,718.0
207.2625,788.0
207.335,731.0
207.4076,810.0
207.4802,697.0
207.5527,755.0
207.6253,736.0
207.6978,773.0
207.7704,719.0
207.843,794.0
207.9155,691.0
207.9881,758.0
208.0606,708.0
208.1331,823.0
208.2057,729.0
208.2782,791.0
208.3508,733.0
208.4233,804.0
208.4958,729.0
208.5684,786.0
208.6409,711.0
208.7134,760.0
208.7859,722.0
208.8584,802.0
208.931,715.0
209.0035,755.0
209.076,714.0
209.1485,819.0
209.221,693.0
209.2935,791.0
209.366,723.0
209.4385,825.0
209.511,713.0
209.5835,814.0
209.656,717.0
209.7285,791.0
209.801,708.0
209.8735,800.0
209.9459,769.0
210.0184,774.0
210.0909,705.0
210.1634,748.0
210.2358,720.0
210.3083,770.0
210.3808,687.0
210.4532,758.0
210.5257,680.0
210.5982,782.0
210.6706,707.0
210.7431,751.0
210.8155,729.0
210.888,738.0
210.9604,683.0
211.0329,803.0
211.1053,701.0
211.1777,746.0
211.2502,703.0
211.3226,765.0
211.3951,713.0
211.4675,782.0
211.5399,701.0
211.6123,805.0
211.6847,694.0
211.7572,798.0
211.8296,721.0
211.902,796.0
211.9744,728.0
212.0468,777.0
212.1192,697.0
212.1917,790.0
212.264,754.0
212.3364,752.0
212.4088,704.0
212.4812,818.0
212.5536,719.0
212.626,785.0
212.6984,716.0
212.7708,778.0
212.8432,699.0
212.9155,795.0
212.9879,696.0
213.0603,734.0
213.1326,731.0
213.205,731.0
213.2774,691.0
213.3498,792.0
213.4221,699.0
213.4945,749.0
213.5668,665.0
213.6392,791.0
213.7115,694.0
213.7839,817.0
213.8562,696.0
213.9286,738.0
214.0009,717.0
214.0732,795.0
214.1456,744.0
214.2179,770.0
214.2903,733.0
214.3626,766.0
214.4349,753.0
214.5072,788.0
214.5796,705.0
214.6519,746.0
214.7242,755.0
214.7965,832.0
214.8688,742.0
214.9411,828.0
215.0134,719.0
215.0857,837.0
215.158,726.0
215.2303,783.0
215.3026,796.0
215.3749,803.0
215.4472,776.0
215.5195,791.0
215.5918,715.0
215.6641,784.0
215.7363,749.0
215.8086,776.0
215.8809,701.0
215.9532,789.0
216.0254,704.0
216.0977,754.0
216.17,740.0
216.2422,784.0
216.3145,740.0
216.3867,806.0
216.459,727.0
216.5313,844.0
216.6035,744.0
216.6758,800.0
216.748,741.0
216.8202,791.0
216.8925,718.0
216.9647,838.0
217.037,756.0
217.1092,824.0
217.1814,715.0
217.2536,787.0
217.3259,701.0
217.3981,836.0
217.4703,766.0
217.5425,795.0
217.6147,779.0
217.687,804.0
217.7592,786.0
217.8314,803.0
217.9035,757.0
217.9758,805.0
218.048,776.0
218.1201,795.0
218.1924,745.0
218.2645,864.0
218.3367,770.0
218.4089,812.0
218.4811,741.0
218.5533,848.0
218.6255,704.0
218.6976,845.0
218.7698,750.0
218.842,776.0
218.9142,762.0
218.9863,808.0
219.0585,750.0
219.1306,797.0
219.2028,792.0
219.2749,813.0
219.3471,734.0
219.4193,843.0
219.4914,742.0
219.5636,788.0
219.6357,776.0
219.7078,857.0
219.78,751.0
219.8521,843.0
219.9242,770.0
219.9964,842.0
220.0685,782.0
220.1406,825.0
220.2128,807.0
220.2849,787.0
220.357,785.0
220.4291,827.0
220.5012,748.0
220.5733,789.0
220.6454,817.0
220.7175,844.0
220.7896,767.0
220.8617,848.0
220.9338,784.0
221.0059,848.0
221.078,796.0
221.1501,829.0
221.2222,784.0
221.2943,844.0
221.3663,752.0
221.4384,872.0
221.5105,856.0
221.5826,778.0
221.6546,758.0
221.7267,804.0
221.7988,758.0
221.8708,850.0
221.9429,787.0
222.015,839.0
222.087,812.0
222.1591,807.0
222.2311,769.0
222.3032,855.0
222.3752,769.0
222.4473,834.0
222.5193,731.0
222.5913,824.0
222.6634,735.0
222.7354,866.0
222.8074,779.0
222.8795,891.0
222.9515,738.0
223.0235,795.0
223.0955,723.0
223.1675,857.0
223.2395,773.0
223.3116,807.0
223.3836,739.0
223.4556,851.0
223.5276,780.0
223.5996,830.0
223.6716,777.0
223.7436,851.0
223.8156,757.0
223.8876,840.0
223.9595,809.0
224.0315,804.0
224.1035,791.0
224.1755,830.0
224.2475,790.0
224.3195,850.0
224.3914,808.0
224.4634,859.0
224.5354,755.0
224.6073,851.0
224.6793,779.0
224.7512,840.0
224.8232,773.0
224.8952,887.0
224.9671,745.0
225.0391,825.0
225.111,848.0
225.1829,878.0
225.2549,817.0
225.3268,852.0
225.3988,804.0
225.4707,894.0
225.5426,797.0
225.6146,874.0
225.6865,780.0
225.7584,864.0
225.8303,817.0
225.9022,890.0
225.9742,805.0
226.0461,838.0
226.118,822.0
226.1899,896.0
226.2618,807.0
226.3337,896.0
226.4056,841.0
226.4775,911.0
226.5494,854.0
226.6213,879.0
226.6932,804.0
226.7651,864.0
226.8369,807.0
226.9088,895.0
226.9807,785.0
227.0526,908.0
227.1245,766.0
227.1963,849.0
227.2682,817.0
227.3401,882.0
227.4119,760.0
227.4838,829.0
227.5556,838.0
227.6275,880.0
227.6993,815.0
227.7712,878.0
227.8431,826.0
227.9149,877.0
227.9867,798.0
228.0586,835.0
228.1304,813.0
228.2023,893.0
228.2741,824.0
228.3459,945.0
228.4177,851.0
228.4896,900.0
228.5614,806.0
228.6332,864.0
228.705,810.0
228.7768,943.0
228.8486,830.0
228.9205,935.0
228.9923,846.0
229.0641,987.0
229.1359,891.0
229.2077,995.0
229.2794,985.0
229.3513,1099.0
229.423,1093.0
229.4948,1469.0
229.5666,1499.0
229.6384,1830.0
229.7102,1807.0
229.782,1512.0
229.8537,1116.0
229.9255,1043.0
229.9973,961.0
230.069,911.0
230.1408,808.0
230.2126,904.0
230.2843,825.0
230.3561,842.0
230.4278,765.0
230.4996,826.0
230.5713,754.0
230.6431,854.0
230.7148,803.0
230.7866,842.0
230.8583,757.0
230.93,855.0
231.0018,777.0
231.0735,855.0
231.1452,767.0
231.2169,880.0
231.2887,777.0
231.3604,876.0
231.4321,793.0
231.5038,803.0
231.5755,786.0
231.6472,828.0
231.7189,776.0
231.7906,846.0
231.8624,773.0
231.9341,913.0
232.0057,730.0
232.0774,868.0
232.1491,775.0
232.2208,828.0
232.2925,766.0
232.3642,871.0
232.4359,804.0
232.5075,871.0
232.5792,804.0
232.6509,857.0
232.7225,803.0
232.7942,854.0
232.8659,797.0
232.9375,804.0
233.0092,786.0
233.0809,897.0
233.1525,813.0
233.2242,846.0
233.2958,832.0
233.3675,831.0
233.4391,786.0
233.5107,822.0
233.5824,763.0
233.654,858.0
233.7256,777.0
233.7973,845.0
233.8689,801.0
233.9405,863.0
234.0121,787.0
234.0838,814.0
234.1554,776.0
234.227,830.0
234.2986,783.0
234.3702,817.0
234.4418,759.0
234.5134,844.0
234.585,795.0
234.6566,851.0
234.7282,770.0
234.7998,831.0
234.8714,754.0
234.943,853.0
235.0146,755.0
235.0862,829.0
235.1577,779.0
235.2293,827.0
235.3009,764.0
235.3725,877.0
235.444,776.0
235.5156,837.0
235.5872,757.0
235.6587,876.0
235.7303,800.0
235.8018,846.0
235.8734,794.0
235.9449,878.0
236.0165,834.0
236.088,904.0
236.1596,813.0
236.2311,879.0
236.3026,817.0
236.3742,863.0
236.4457,794.0
236.5172,864.0
236.5887,803.0
236.6603,848.0
236.7318,821.0
236.8033,863.0
236.8748,790.0
236.9464,865.0
237.0179,796.0
237.0894,858.0
237.1609,807.0
237.2324,867.0
237.3039,774.0
237.3754,872.0
237.4469,797.0
237.5184,905.0
237.5898,787.0
237.6613,885.0
237.7328,820.0
237.8043,878.0
237.8758,830.0
237.9472,817.0
238.0187,806.0
238.0902,918.0
238.1617,827.0
238.2331,901.0
238.3046,838.0
238.376,855.0
238.4475,789.0
238.519,935.0
238.5904,836.0
238.6618,871.0
238.7333,845.0
238.8047,868.0
238.8762,843.0
238.9476,844.0
239.0191,821.0
239.0905,896.0
239.1619,800.0
239.2334,895.0
239.3048,790.0
239.3762,886.0
239.4476,792.0
239.519,918.0
239.5904,831.0
239.6619,919.0
239.7333,817.0
239.8047,884.0
239.8761,823.0
239.9475,923.0
240.0189,811.0
240.0903,878.0
240.1617,872.0
240.233,913.0
240.3044,785.0
240.3758,891.0
240.4472,823.0
240.5186,910.0
240.59,806.0
240.6613,888.0
240.7327,839.0
240.8041,905.0
240.8754,833.0
240.9468,833.0
241.0181,788.0
241.0895,871.0
241.1609,822.0
241.2322,844.0
241.3036,800.0
241.3749,920.0
241.4462,815.0
241.5176,885.0
241.5889,832.0
241.6602,882.0
241.7316,808.0
241.8029,929.0
241.8743,776.0
241.9456,884.0
242.0169,793.0
242.0882,884.0
242.1595,842.0
242.2309,868.0
242.3022,842.0
242.3735,872.0
242.4448,814.0
242.5161,893.0
242.5874,846.0
242.6587,853.0
242.73,844.0
242.8013,887.0
242.8726,848.0
242.9438,885.0
243.0151,800.0
243.0864,894.0
243.1577,763.0
243.229,894.0
243.3002,826.0
243.3715,858.0
243.4428,793.0
243.5141,875.0
243.5853,827.0
243.6566,883.0
243.7278,765.0
243.7991,894.0
243.8703,805.0
243.9416,889.0
244.0128,785.0
244.0841,852.0
244.1553,793.0
244.2266,944.0
244.2978,806.0
244.369,906.0
244.4402,854.0
244.5115,862.0
244.5827,812.0
244.6539,929.0
244.7251,817.0
244.7964,861.0
244.8676,811.0
244.9388,922.0
245.01,844.0
245.0812,894.0
245.1524,838.0
245.2236,869.0
245.2948,857.0
245.366,910.0
245.4372,789.0
245.5084,867.0
245.5796,800.0
245.6507,870.0
245.7219,823.0
245.7931,874.0
245.8643,793.0
245.9355,868.0
246.0066,781.0
246.0778,819.0
246.149,749.0
246.2201,864.0
246.2913,796.0
246.3624,874.0
246.4336,789.0
246.5047,888.0
246.5759,762.0
246.647,834.0
246.7182,799.0
246.7893,930.0
246.8605,808.0
246.9316,875.0
247.0027,779.0
247.0739,905.0
247.145,793.0
247.2161,852.0
247.2872,787.0
247.3584,865.0
247.4295,848.0
247.5006,928.0
247.5717,864.0
247.6428,1025.0
247.7139,1142.0
247.785,1350.0
247.8561,1512.0
247.9272,1792.0
247.9983,1446.0
248.0694,1259.0
248.1405,1027.0
248.2116,1064.0
248.2827,944.0
248.3537,971.0
248.4248,865.0
248.4959,919.0
248.5669,798.0
248.638,950.0
248.7091,805.0
248.7802,940.0
248.8512,785.0
248.9223,935.0
248.9933,823.0
249.0644,852.0
249.1354,826.0
249.2065,894.0
249.2775,825.0
249.3486,885.0
249.4196,770.0
249.4906,857.0
249.5617,787.0
249.6327,856.0
249.7037,780.0
249.7747,861.0
249.8458,800.0
249.9168,867.0
249.9878,794.0
250.0588,868.0
250.1298,778.0
250.2009,884.0
250.2719,849.0
250.3429,865.0
250.4138,808.0
250.4849,957.0
250.5558,844.0
250.6268,942.0
250.6978,898.0
250.7688,954.0
250.8398,986.0
250.9108,1128.0
250.9818,1027.0
251.0527,1091.0
251.1237,1125.0
251.1947,1209.0
251.2657,1110.0
251.3366,1001.0
251.4076,903.0
251.4785,880.0
251.5495,772.0
251.6205,879.0
251.6914,802.0
251.7623,913.0
251.8333,826.0
251.9042,840.0
251.9752,819.0
252.0461,939.0
252.1171,810.0
252.188,861.0
252.2589,808.0
252.3298,869.0
252.4008,787.0
252.4717,897.0
252.5426,798.0
252.6135,822.0
252.6844,786.0
252.7553,845.0
252.8262,750.0
252.8971,827.0
252.9681,785.0
253.039,849.0
253.1098,818.0
253.1808,863.0
253.2516,753.0
253.3225,842.0
253.3934,778.0
253.4643,829.0
253.5352,745.0
253.606,834.0
253.6769,793.0
253.7478,833.0
253.8187,816.0
253.8895,884.0
253.9604,777.0
254.0312,866.0
254.1021,760.0
254.173,834.0
254.2438,780.0
254.3147,868.0
254.3855,767.0
254.4563,838.0
254.5272,763.0
254.598,852.0
254.6689,782.0
254.7397,821.0
254.8105,811.0
254.8813,835.0
254.9522,798.0
255.023,839.0
255.0938,760.0
255.1646,851.0
255.2354,771.0
255.3062,887.0
255.3771,753.0
255.4479,894.0
255.5187,747.0
255.5894,825.0
255.6603,815.0
255.731,868.0
255.8018,765.0
255.8726,875.0
255.9434,798.0
256.0142,837.0
256.085,788.0
256.1558,876.0
256.2265,803.0
256.2973,837.0
256.3681,772.0
256.4388,898.0
256.5096,744.0
256.5804,859.0
256.6511,824.0
256.7219,910.0
256.7926,799.0
256.8634,888.0
256.9341,777.0
257.0049,846.0
257.0756,791.0
257.1463,887.0
257.2171,798.0
257.2878,860.0
257.3585,799.0
257.4292,843.0
257.5,753.0
257.5707,847.0
257.6414,796.0
257.7122,857.0
257.7828,773.0
257.8535,874.0
257.9243,727.0
257.995,878.0
258.0657,778.0
258.1364,812.0
258.2071,805.0
258.2777,857.0
258.3484,791.0
258.4191,847.0
258.4898,792.0
258.5605,866.0
258.6312,808.0
258.7018,873.0
258.7725,807.0
258.8432,788.0
258.9139,723.0
258.9845,798.0
259.0552,762.0
259.1259,911.0
259.1965,776.0
259.2672,847.0
259.3378,769.0
259.4085,853.0
259.4791,765.0
259.5497,784.0
259.6204,723.0
259.691,868.0
259.7617,760.0
259.8323,892.0
259.9029,776.0
259.9735,813.0
260.0442,766.0
260.1147,774.0
260.1854,744.0
260.256,858.0
260.3267,738.0
260.3972,875.0
260.4678,817.0
260.5384,854.0
260.6091,785.0
260.6796,867.0
260.7502,761.0
260.8208,846.0
260.8914,749.0
260.962,874.0
261.0326,749.0
261.1032,826.0
261.1737,809.0
261.2444,862.0
261.3149,779.0
261.3854,832.0
261.456,763.0
261.5266,886.0
261.5971,785.0
261.6677,849.0
261.7383,798.0
261.8088,887.0
261.8794,759.0
261.9499,840.0
262.0205,776.0
262.091,863.0
262.1615,797.0
262.2321,893.0
262.3026,796.0
262.3731,844.0
262.4437,741.0
262.5142,896.0
262.5847,824.0
262.6552,840.0
262.7257,784.0
262.7962,872.0
262.8668,806.0
262.9373,894.0
263.0078,806.0
263.0783,890.0
263.1488,786.0
263.2193,857.0
263.2898,827.0
263.3603,917.0
263.4307,757.0
263.5012,913.0
263.5717,808.0
263.6422,907.0
263.7127,814.0
263.7831,862.0
263.8536,808.0
263.9241,902.0
263.9945,807.0
264.065,875.0
264.1354,791.0
264.2059,834.0
264.2764,751.0
264.3468,879.0
264.4173,753.0
264.4877,897.0
264.5581,765.0
264.6286,887.0
264.699,803.0
264.7694,892.0
264.8399,766.0
264.9103,872.0
264.9807,775.0
265.0511,881.0
265.1216,766.0
265.192,881.0
265.2625,780.0
265.3328,849.0
265.4032,800.0
265.4736,839.0
265.5441,806.0
265.6144,836.0
265.6848,750.0
265.7552,866.0
265.8256,767.0
265.896,831.0
265.9664,740.0
266.0368,869.0
266.1071,769.0
266.1775,853.0
266.2479,789.0
266.3183,838.0
266.3886,750.0
266.459,860.0
266.5294,760.0
266.5998,888.0
266.6701,749.0
266.7404,885.0
266.8108,782.0
266.8812,836.0
266.9515,762.0
267.0219,876.0
267.0922,768.0
267.1625,875.0
267.2328,790.0
267.3032,871.0
267.3735,740.0
267.4438,822.0
267.5142,689.0
267.5845,873.0
267.6548,821.0
267.7251,846.0
267.7954,711.0
267.8657,840.0
267.936,756.0
268.0063,838.0
268.0766,749.0
268.1469,809.0
268.2172,774.0
268.2875,834.0
268.3578,801.0
268.4281,838.0
268.4984,800.0
268.5686,857.0
268.6389,759.0
268.7092,846.0
268.7794,769.0
268.8498,860.0
268.92,792.0
268.9902,879.0
269.0605,737.0
269.1308,830.0
269.201,772.0
269.2713,828.0
269.3415,777.0
269.4118,838.0
269.482,769.0
269.5523,822.0
269.6225,706.0
269.6927,858.0
269.7629,775.0
269.8332,828.0
269.9034,751.0
269.9736,859.0
270.0439,741.0
270.114,851.0
270.1843,742.0
270.2545,825.0
270.3247,763.0
270.3949,776.0
270.4651,773.0
270.5353,805.0
270.6055,734.0
270.6757,885.0
270.7459,784.0
270.8161,854.0
270.8863,772.0
270.9564,821.0
271.0266,802.0
271.0968,868.0
271.167,795.0
271.2371,844.0
271.3073,822.0
271.3775,845.0
271.4476,746.0
271.5178,867.0
271.588,834.0
271.6581,899.0
271.7282,770.0
271.7984,859.0
271.8685,755.0
271.9387,825.0
272.0088,779.0
272.0789,857.0
272.1491,809.0
272.2192,875.0
272.2893,794.0
272.3595,839.0
272.4296,778.0
272.4997,882.0
272.5698,787.0
272.64,903.0
272.7101,801.0
272.7802,881.0
272.8503,753.0
272.9204,881.0
272.9904,805.0
273.0605,878.0
273.1306,812.0
273.2007,894.0
273.2708,794.0
273.3409,902.0
273.411,807.0
273.481,812.0
273.5511,775.0
273.6212,869.0
273.6913,819.0
273.7614,931.0
273.8314,812.0
273.9015,889.0
273.9715,822.0
274.0416,879.0
274.1116,843.0
274.1817,898.0
274.2517,816.0
274.3217,925.0
274.3918,833.0
274.4619,943.0
274.5319,815.0
274.602,920.0
274.6719,818.0
274.742,928.0
274.812,875.0
274.882,937.0
274.952,818.0
275.0221,893.0
275.0921,790.0
275.1621,881.0
275.2321,804.0
275.3021,903.0
275.3721,810.0
275.4421,885.0
275.5121,790.0
275.5821,864.0
275.6521,825.0
275.722,895.0
275.792,840.0
275.862,869.0
275.932,792.0
276.002,908.0
276.0719,817.0
276.1418,866.0
276.2119,778.0
276.2818,912.0
276.3517,820.0
276.4218,896.0
276.4917,829.0
276.5616,845.0
276.6316,804.0
276.7015,884.0
276.7715,838.0
276.8414,850.0
276.9113,756.0
276.9813,874.0
277.0512,774.0
277.1211,905.0
277.191,827.0
277.261,890.0
277.3309,771.0
277.4008,875.0
277.4707,776.0
277.5406,891.0
277.6105,783.0
277.6804,829.0
277.7503,789.0
277.8202,862.0
277.8901,797.0
277.96,889.0
278.0299,750.0
278.0998,870.0
278.1697,791.0
278.2396,858.0
278.3094,760.0
278.3793,873.0
278.4492,799.0
278.519,831.0
278.5889,795.0
278.6588,926.0
278.7286,802.0
278.7985,887.0
278.8683,813.0
278.9382,875.0
279.0081,789.0
279.0779,875.0
279.1477,803.0
279.2176,846.0
279.2874,809.0
279.3572,918.0
279.4271,799.0
279.4969,891.0
279.5667,823.0
279.6365,888.0
279.7063,813.0
279.7762,863.0
279.846,825.0
279.9158,917.0
279.9856,826.0
280.0554,888.0
280.1252,837.0
280.195,902.0
280.2648,846.0
280.3346,911.0
280.4044,816.0
280.4742,942.0
280.544,829.0
280.6137,909.0
280.6835,855.0
280.7533,884.0
280.8231,865.0
280.8928,954.0
280.9626,838.0
281.0323,913.0
281.1021,810.0
281.1719,932.0
281.2416,845.0
281.3114,907.0
281.3811,830.0
281.4509,903.0
281.5206,830.0
281.5904,894.0
281.6601,807.0
281.7299,935.0
281.7996,841.0
281.8693,901.0
281.939,801.0
282.0088,871.0
282.0784,801.0
282.1482,930.0
282.2179,826.0
282.2876,926.0
282.3573,827.0
282.427,886.0
282.4967,829.0
282.5664,887.0
282.6361,875.0
282.7058,869.0
282.7755,791.0
282.8452,906.0
282.9149,857.0
282.9845,937.0
283.0542,878.0
283.1239,899.0
283.1936,831.0
283.2632,922.0
283.3329,820.0
283.4026,945.0
283.4722,849.0
283.5419,1053.0
283.6115,919.0
283.6812,996.0
283.7508,958.0
283.8205,1024.0
283.8901,942.0
283.9597,1035.0
284.0294,928.0
284.099,999.0
284.1686,926.0
284.2383,975.0
284.3079,883.0
284.3775,934.0
284.4471,831.0
284.5168,953.0
284.5864,851.0
284.656,917.0
284.7256,825.0
284.7952,927.0
284.8648,808.0
284.9344,953.0
285.004,828.0
285.0736,950.0
285.1432,841.0
285.2128,894.0
285.2823,816.0
285.3519,936.0
285.4215,829.0
285.4911,898.0
285.5606,839.0
285.6302,842.0
285.6998,814.0
285.7693,904.0
285.8389,831.0
285.9084,835.0
285.978,815.0
286.0475,865.0
286.1171,802.0
286.1866,873.0
286.2562,831.0
286.3257,875.0
286.3952,838.0
286.4648,907.0
286.5343,804.0
286.6039,849.0
286.6733,803.0
286.7429,849.0
286.8124,817.0
286.8819,922.0
286.9514,832.0
287.0209,929.0
287.0904,764.0
287.1599,900.0
287.2294,867.0
287.299,908.0
287.3684,810.0
287.4379,918.0
287.5074,812.0
287.5769,853.0
287.6464,790.0
287.7159,933.0
287.7853,777.0
287.8548,882.0
287.9243,852.0
287.9937,911.0
288.0632,848.0
288.1327,908.0
288.2021,771.0
288.2716,898.0
288.341,831.0
288.4105,886.0
288.4799,822.0
288.5493,931.0
288.6188,781.0
288.6882,899.0
288.7577,813.0
288.8271,883.0
288.8965,757.0
288.9659,930.0
289.0354,795.0
289.1048,868.0
289.1742,819.0
289.2436,890.0
289.313,823.0
289.3824,895.0
289.4518,862.0
289.5212,905.0
289.5906,777.0
289.66,895.0
289.7294,851.0
289.7988,853.0
289.8682,840.0
289.9376,878.0
290.007,799.0
290.0764,923.0
290.1457,864.0
290.2151,918.0
290.2844,841.0
290.3538,885.0
290.4232,833.0
290.4925,856.0
290.5619,827.0
290.6312,914.0
290.7006,826.0
290.7699,886.0
290.8393,796.0
290.9086,939.0
290.978,871.0
291.0473,921.0
291.1166,853.0
291.1859,922.0
291.2553,801.0
291.3246,935.0
291.3939,832.0
291.4632,858.0
291.5325,837.0
291.6018,940.0
291.6712,833.0
291.7405,962.0
291.8098,869.0
291.8791,950.0
291.9484,860.0
292.0176,914.0
292.0869,849.0
292.1562,896.0
292.2255,881.0
292.2948,938.0
292.3641,825.0
292.4334,962.0
292.5026,894.0
292.5719,994.0
292.6412,829.0
292.7104,918.0
292.7797,859.0
292.8489,953.0
292.9182,825.0
292.9875,900.0
293.0567,829.0
293.1259,911.0
293.1952,836.0
293.2644,948.0
293.3336,798.0
293.4029,920.0
293.4721,821.0
293.5413,976.0
293.6106,848.0
293.6798,935.0
293.749,812.0
293.8182,936.0
293.8875,806.0
293.9566,952.0
294.0259,875.0
294.0951,936.0
294.1642,824.0
294.2334,931.0
294.3026,850.0
294.3718,963.0
294.441,864.0
294.5102,956.0
294.5794,835.0
294.6485,925.0
294.7177,859.0
294.7869,950.0
294.8561,838.0
294.9253,935.0
294.9944,778.0
295.0636,941.0
295.1327,903.0
295.2019,905.0
295.271,819.0
295.3402,879.0
295.4093,854.0
295.4785,919.0
295.5476,832.0
295.6168,945.0
295.6859,851.0
295.755,923.0
295.8241,797.0
295.8932,968.0
295.9623,844.0
296.0315,977.0
296.1006,807.0
296.1697,930.0
296.2388,884.0
296.3079,922.0
296.377,884.0
296.4461,923.0
296.5152,871.0
296.5843,928.0
296.6534,791.0
296.7225,940.0
296.7916,829.0
296.8606,983.0
296.9297,908.0
296.9988,911.0
297.0679,804.0
297.137,924.0
297.206,843.0
297.2751,960.0
297.3441,871.0
297.4132,912.0
297.4823,860.0
297.5513,931.0
297.6204,824.0
297.6894,929.0
297.7584,866.0
297.8275,958.0
297.8965,841.0
297.9655,944.0
298.0346,842.0
298.1036,931.0
298.1726,863.0
298.2417,936.0
298.3106,830.0
298.3797,947.0
298.4487,855.0
298.5177,929.0
298.5867,876.0
298.6557,959.0
298.7247,883.0
298.7937,947.0
298.8627,864.0
298.9317,940.0
299.0007,859.0
299.0696,911.0
299.1386,811.0
299.2076,982.0
299.2766,866.0
299.3456,933.0
299.4145,887.0
299.4835,901.0
299.5524,867.0
299.6214,933.0
299.6903,856.0
299.7593,945.0
299.8282,850.0
299.8972,903.0
299.9661,888.0
300.0351,932.0
300.104,844.0
300.173,927.0
300.2419,857.0
300.3108,944.0
300.3797,880.0
300.4487,968.0
300.5176,863.0
300.5865,908.0
300.6554,908.0
300.7243,966.0
300.7932,878.0
300.8621,933.0
300.931,882.0
300.9999,924.0
301.0688,861.0
301.1377,933.0
301.2066,870.0
301.2755,993.0
301.3444,824.0
301.4132,924.0
301.4821,858.0
301.551,933.0
301.6199,924.0
301.6887,940.0
301.7576,842.0
301.8265,979.0
301.8953,880.0
301.9642,970.0
302.033,848.0
302.1019,959.0
302.1707,867.0
302.2396,966.0
302.3084,849.0
302.3772,946.0
302.4461,871.0
302.5149,961.0
302.5837,891.0
302.6526,952.0
302.7214,869.0
302.7902,899.0
302.859,862.0
302.9278,905.0
302.9966,900.0
303.0654,1002.0
303.1342,815.0
303.203,937.0
303.2718,856.0
303.3406,972.0
303.4094,843.0
303.4781,951.0
303.547,864.0
303.6158,912.0
303.6845,842.0
303.7533,973.0
303.8221,853.0
303.8908,986.0
303.9596,822.0
304.0284,927.0
304.0971,902.0
304.1659,964.0
304.2346,863.0
304.3034,935.0
304.3721,841.0
304.4409,923.0
304.5096,812.0
304.5784,963.0
304.6471,829.0
304.7158,966.0
304.7845,845.0
304.8533,952.0
304.922,837.0
304.9907,944.0
305.0594,899.0
305.1281,972.0
305.1969,842.0
305.2656,926.0
305.3343,838.0
305.403,923.0
305.4717,856.0
305.5403,957.0
305.609,823.0
305.6778,929.0
305.7464,855.0
305.8151,922.0
305.8838,846.0
305.9525,935.0
306.0211,888.0
306.0898,961.0
306.1585,873.0
306.2271,941.0
306.2958,869.0
306.3645,950.0
306.4331,864.0
306.5017,926.0
306.5704,860.0
306.6391,986.0
306.7077,829.0
306.7763,998.0
306.845,849.0
306.9136,910.0
306.9822,861.0
307.0508,952.0
307.1195,879.0
307.1881,918.0
307.2567,837.0
307.3253,954.0
307.3939,896.0
307.4625,947.0
307.5312,833.0
307.5998,932.0
307.6684,853.0
307.7369,922.0
307.8055,835.0
307.8741,948.0
307.9427,830.0
308.0113,920.0
308.0799,805.0
308.1484,921.0
308.217,780.0
308.2856,877.0
308.3542,824.0
308.4227,916.0
308.4913,868.0
308.5598,958.0
308.6284,838.0
308.6969,932.0
308.7655,822.0
308.834,918.0
308.9026,857.0
308.9711,917.0
309.0396,800.0
309.1082,935.0
309.1767,829.0
309.2452,972.0
309.3138,832.0
309.3823,910.0
309.4508,855.0
309.5193,916.0
309.5878,854.0
309.6563,944.0
309.7249,851.0
309.7933,939.0
309.8618,890.0
309.9303,919.0
309.9988,818.0
310.0673,953.0
310.1358,849.0
310.2043,903.0
310.2728,859.0
310.3412,919.0
310.4097,814.0
310.4781,916.0
310.5466,837.0
310.6151,877.0
310.6836,887.0
310.752,895.0
310.8205,844.0
310.8889,916.0
310.9574,848.0
311.0258,943.0
311.0943,811.0
311.1627,952.0
311.2311,864.0
311.2996,942.0
311.368,837.0
311.4364,903.0
311.5049,826.0
311.5733,908.0
311.6417,837.0
311.7101,934.0
311.7785,869.0
311.8469,881.0
311.9153,910.0
311.9837,944.0
312.0521,817.0
312.1205,888.0
312.1889,760.0
312.2573,905.0
312.3257,850.0
312.3941,880.0
312.4624,852.0
312.5308,908.0
312.5992,756.0
312.6675,915.0
312.7359,808.0
312.8043,910.0
312.8727,802.0
312.941,900.0
313.0093,819.0
313.0777,854.0
313.1461,825.0
313.2144,907.0
313.2827,830.0
313.3511,911.0
313.4194,803.0
313.4877,878.0
313.5561,807.0
313.6244,905.0
313.6927,791.0
313.761,895.0
313.8294,757.0
313.8977,831.0
313.966,746.0
314.0343,913.0
314.1026,803.0
314.1709,868.0
314.2392,803.0
314.3075,889.0
314.3758,822.0
314.4441,887.0
314.5124,818.0
314.5806,915.0
314.6489,778.0
314.7172,923.0
314.7855,847.0
314.8537,881.0
314.922,803.0
314.9903,899.0
315.0585,795.0
315.1268,937.0
315.195,830.0
315.2633,883.0
315.3315,875.0
315.3998,887.0
315.468,810.0
315.5362,907.0
315.6045,811.0
315.6727,897.0
315.7409,853.0
315.8092,909.0
315.8774,821.0
315.9456,907.0
316.0138,876.0
316.082,950.0
316.1502,806.0
316.2184,926.0
316.2867,859.0
316.3549,948.0
316.423,887.0
316.4912,967.0
316.5594,849.0
316.6276,989.0
316.6958,842.0
316.764,943.0
316.8322,861.0
316.9003,990.0
316.9685,830.0
317.0367,1003.0
317.1049,887.0
317.173,944.0
317.2411,897.0
317.3093,953.0
317.3774,863.0
317.4456,925.0
317.5137,870.0
317.5819,972.0
317.65,834.0
317.7182,941.0
317.7863,858.0
317.8545,949.0
317.9225,894.0
317.9907,939.0
318.0588,834.0
318.1269,985.0
318.195,834.0
318.2631,961.0
318.3312,867.0
318.3994,915.0
318.4675,802.0
318.5355,921.0
318.6036,818.0
318.6717,965.0
318.7398,849.0
318.8079,973.0
318.876,924.0
318.9441,959.0
319.0121,876.0
319.0802,964.0
319.1483,896.0
319.2164,964.0
319.2844,857.0
319.3525,980.0
319.4205,840.0
319.4886,986.0
319.5566,880.0
319.6247,936.0
319.6927,846.0
319.7608,976.0
319.8288,885.0
319.8968,978.0
319.9648,860.0
320.0329,973.0
320.1009,910.0
320.1689,984.0
320.237,887.0
320.305,976.0
320.373,906.0
320.441,949.0
320.509,898.0
320.577,955.0
320.645,896.0
320.713,963.0
320.781,902.0
320.849,907.0
320.917,863.0
320.985,972.0
321.0529,911.0
321.1209,983.0
321.1889,855.0
321.2568,911.0
321.3248,914.0
321.3928,927.0
321.4608,875.0
321.5287,963.0
321.5966,835.0
321.6646,927.0
321.7325,853.0
321.8005,937.0
321.8684,849.0
321.9364,945.0
322.0043,849.0
322.0722,930.0
322.1401,862.0
322.2081,938.0
322.276,858.0
322.344,956.0
322.4119,895.0
322.4797,925.0
322.5477,875.0
322.6156,931.0
322.6835,860.0
322.7514,979.0
322.8193,830.0
322.8871,975.0
322.955,887.0
323.0229,978.0
323.0908,863.0
323.1588,959.0
323.2266,841.0
323.2945,933.0
323.3623,849.0
323.4302,1019.0
323.4981,867.0
323.5659,952.0
323.6338,872.0
323.7016,928.0
323.7695,859.0
323.8373,949.0
323.9052,914.0
323.973,976.0
324.0409,884.0
324.1087,975.0
324.1765,882.0
324.2444,991.0
324.3122,874.0
324.38,996.0
324.4479,875.0
324.5157,987.0
324.5834,883.0
324.6512,967.0
324.7191,916.0
324.7869,953.0
324.8547,861.0
324.9225,969.0
324.9903,913.0
325.058,1002.0
325.1259,868.0
325.1936,980.0
325.2614,828.0
325.3292,934.0
325.397,929.0
325.4647,976.0
325.5325,886.0
325.6002,894.0
325.668,865.0
325.7358,964.0
325.8036,882.0
325.8713,953.0
325.939,895.0
326.0068,962.0
326.0745,920.0
326.1422,927.0
326.21,868.0
326.2777,949.0
326.3455,865.0
326.4132,962.0
326.4809,879.0
326.5486,992.0
326.6164,898.0
326.6841,954.0
326.7518,901.0
326.8195,917.0
326.8872,894.0
326.9549,1023.0
327.0226,855.0
327.0903,976.0
327.158,894.0
327.2256,953.0
327.2933,915.0
327.361,1011.0
327.4287,848.0
327.4964,987.0
327.5641,866.0
327.6317,979.0
327.6994,865.0
327.767,966.0
327.8347,813.0
327.9023,965.0
327.97,925.0
328.0376,958.0
328.1053,875.0
328.1729,930.0
328.2406,910.0
328.3082,968.0
328.3759,911.0
328.4435,905.0
328.5111,885.0
328.5787,921.0
328.6463,834.0
328.7139,985.0
328.7816,884.0
328.8492,958.0
328.9168,874.0
328.9843,931.0
329.052,842.0
329.1196,964.0
329.1872,821.0
329.2548,955.0
329.3224,833.0
329.3899,935.0
329.4575,840.0
329.5251,928.0
329.5927,857.0
329.6602,944.0
329.7278,835.0
329.7953,936.0
329.8629,870.0
329.9305,948.0
329.998,838.0
330.0656,945.0
330.1331,852.0
330.2007,899.0
330.2682,814.0
330.3358,919.0
330.4033,808.0
330.4708,888.0
330.5383,847.0
330.6059,917.0
330.6734,861.0
330.7409,914.0
330.8084,842.0
330.876,949.0
330.9435,864.0
331.011,886.0
331.0784,849.0
331.1459,947.0
331.2134,856.0
331.2809,890.0
331.3484,825.0
331.4159,884.0
331.4834,809.0
331.5508,928.0
331.6183,831.0
331.6858,914.0
331.7533,876.0
331.8207,904.0
331.8882,856.0
331.9557,941.0
332.0231,855.0
332.0906,902.0
332.1581,822.0
332.2255,874.0
332.2929,844.0
332.3604,927.0
332.4278,861.0
332.4952,859.0
332.5627,803.0
332.6301,940.0
332.6975,833.0
332.7649,944.0
332.8323,853.0
332.8997,971.0
332.9672,852.0
333.0346,946.0
333.102,904.0
333.1694,952.0
333.2368,883.0
333.3042,948.0
333.3716,841.0
333.439,914.0
333.5063,856.0
333.5737,949.0
333.6411,876.0
333.7085,950.0
333.7758,849.0
333.8432,910.0
333.9106,864.0
333.9779,928.0
334.0453,803.0
334.1126,986.0
334.18,845.0
334.2473,920.0
334.3147,886.0
334.382,905.0
334.4494,879.0
334.5167,932.0
334.584,844.0
334.6514,943.0
334.7187,814.0
334.786,967.0
334.8533,862.0
334.9206,926.0
334.9879,851.0
335.0553,943.0
335.1226,809.0
335.1899,981.0
335.2572,883.0
335.3245,925.0
335.3918,829.0
335.459,942.0
335.5263,862.0
335.5936,917.0
335.6609,862.0
335.7282,924.0
335.7954,847.0
335.8627,1003.0
335.93,872.0
335.9973,909.0
336.0645,794.0
336.1318,919.0
336.199,825.0
336.2662,960.0
336.3335,838.0
336.4008,947.0
336.468,779.0
336.5352,994.0
336.6024,840.0
336.6697,933.0
336.7369,883.0
336.8041,939.0
336.8714,847.0
336.9386,910.0
337.0058,844.0
337.073,923.0
337.1402,891.0
337.2074,925.0
337.2746,877.0
337.3418,954.0
337.409,851.0
337.4762,901.0
337.5434,834.0
337.6106,916.0
337.6777,779.0
337.7449,897.0
337.8121,846.0
337.8792,877.0
337.9464,852.0
338.0135,943.0
338.0807,824.0
338.1479,933.0
338.2151,814.0
338.2822,940.0
338.3493,857.0
338.4165,906.0
338.4836,840.0
338.5508,967.0
338.6179,818.0
338.6851,926.0
338.7521,833.0
338.8193,938.0
338.8864,865.0
338.9535,935.0
339.0206,855.0
339.0878,868.0
339.1548,825.0
339.222,916.0
339.289,781.0
339.3561,977.0
339.4233,818.0
339.4904,918.0
339.5574,830.0
339.6245,918.0
339.6916,838.0
339.7587,927.0
339.8257,827.0
339.8929,919.0
339.9599,847.0
340.0269,925.0
340.094,835.0
340.1611,877.0
340.2281,817.0
340.2952,883.0
340.3622,836.0
340.4293,901.0
340.4963,790.0
340.5633,882.0
340.6304,809.0
340.6974,908.0
340.7645,814.0
340.8315,915.0
340.8985,861.0
340.9655,892.0
341.0325,772.0
341.0995,899.0
341.1665,823.0
341.2335,842.0
341.3005,810.0
341.3675,922.0
341.4345,803.0
341.5015,937.0
341.5685,811.0
341.6355,929.0
341.7025,863.0
341.7694,951.0
341.8364,842.0
341.9034,911.0
341.9704,822.0
342.0373,909.0
342.1043,815.0
342.1712,941.0
342.2382,831.0
342.3051,873.0
342.3721,826.0
342.4391,885.0
342.506,820.0
342.5729,897.0
342.6398,856.0
342.7068,881.0
342.7737,810.0
342.8406,910.0
342.9076,850.0
342.9745,896.0
343.0414,862.0
343.1083,957.0
343.1752,765.0
343.2421,907.0
343.309,816.0
343.3759,887.0
343.4428,858.0
343.5097,936.0
343.5766,847.0
343.6434,932.0
343.7104,845.0
343.7772,901.0
343.8441,868.0
343.9109,913.0
343.9778,842.0
344.0447,928.0
344.1116,862.0
344.1784,894.0
344.2453,824.0
344.3121,933.0
344.3789,800.0
344.4458,981.0
344.5127,851.0
344.5795,928.0
344.6463,870.0
344.7131,926.0
344.78,846.0
344.8468,893.0
344.9136,818.0
344.9805,927.0
345.0473,815.0
345.1141,921.0
345.1809,826.0
345.2477,933.0
345.3145,863.0
345.3813,947.0
345.4481,888.0
345.5149,943.0
345.5816,836.0
345.6484,907.0
345.7152,871.0
345.782,940.0
345.8488,833.0
345.9155,910.0
345.9823,837.0
346.049,931.0
346.1158,836.0
346.1826,942.0
346.2493,861.0
346.3161,920.0
346.3828,795.0
346.4496,950.0
346.5163,865.0
346.5831,888.0
346.6498,846.0
346.7165,925.0
346.7832,865.0
346.85,930.0
346.9167,814.0
346.9834,935.0
347.0501,856.0
347.1168,908.0
347.1835,855.0
347.2502,923.0
347.3169,833.0
347.3836,938.0
347.4503,850.0
347.517,945.0
347.5837,861.0
347.6504,952.0
347.717,869.0
347.7837,959.0
347.8504,850.0
347.9171,904.0
347.9837,818.0
348.0504,944.0
348.1171,823.0
348.1837,907.0
348.2504,866.0
348.317,955.0
348.3837,824.0
348.4503,945.0
348.5169,833.0
348.5836,953.0
348.6502,807.0
348.7169,912.0
348.7835,898.0
348.8501,914.0
348.9167,874.0
348.9833,963.0
349.0499,880.0
349.1165,901.0
349.1832,831.0
349.2498,941.0
349.3163,857.0
349.3829,938.0
349.4495,846.0
349.5161,905.0
349.5827,864.0
349.6493,1002.0
349.7159,793.0
349.7824,975.0
349.849,884.0
349.9156,964.0
349.9821,901.0
350.0487,910.0
350.1153,917.0
350.1818,938.0
350.2484,856.0
350.3149,946.0
350.3814,881.0
350.448,914.0
350.5146,837.0
350.5811,884.0
350.6476,907.0
350.7141,942.0
350.7807,875.0
350.8472,938.0
350.9137,840.0
350.9802,923.0
351.0467,861.0
351.1132,907.0
351.1797,871.0
351.2462,892.0
351.3127,853.0
351.3792,958.0
351.4457,837.0
351.5122,941.0
351.5787,886.0
351.6451,948.0
351.7116,813.0
351.7781,968.0
351.8446,900.0
351.911,953.0
351.9775,840.0
352.044,994.0
352.1104,910.0
352.1769,968.0
352.2433,864.0
352.3098,926.0
352.3762,901.0
352.4427,951.0
352.5091,856.0
352.5755,936.0
352.642,847.0
352.7084,942.0
352.7748,925.0
352.8412,966.0
352.9077,830.0
352.9741,927.0
353.0405,847.0
353.1068,978.0
353.1732,867.0
353.2396,961.0
353.306,895.0
353.3724,955.0
353.4388,883.0
353.5052,989.0
353.5716,872.0
353.638,967.0
353.7043,937.0
353.7707,967.0
353.8371,870.0
353.9034,952.0
353.9698,869.0
354.0362,938.0
354.1025,903.0
354.1689,981.0
354.2352,898.0
354.3016,970.0
354.3679,863.0
354.4342,973.0
354.5005,866.0
354.5669,999.0
354.6332,907.0
354.6996,1041.0
354.7659,958.0
354.8322,967.0
354.8985,897.0
354.9648,989.0
355.0311,872.0
355.0974,983.0
355.1637,895.0
355.23,980.0
355.2963,830.0
355.3625,922.0
355.4289,849.0
355.4952,987.0
355.5614,880.0
355.6277,951.0
355.694,879.0
355.7603,938.0
355.8265,845.0
355.8928,964.0
355.959,867.0
356.0253,947.0
356.0916,861.0
356.1578,968.0
356.224,814.0
356.2903,947.0
356.3565,823.0
356.4228,932.0
356.489,836.0
356.5552,925.0
356.6214,825.0
356.6876,907.0
356.7539,850.0
356.8201,950.0
356.8863,902.0
356.9525,922.0
357.0187,837.0
357.0849,969.0
357.1511,883.0
357.2173,961.0
357.2835,845.0
357.3497,972.0
357.4158,910.0
357.482,913.0
357.5482,858.0
357.6144,948.0
357.6805,902.0
357.7467,925.0
357.8128,892.0
357.879,969.0
357.9452,904.0
358.0114,1009.0
358.0775,918.0
358.1436,1040.0
358.2097,956.0
358.2759,1020.0
358.342,986.0
358.4082,1091.0
358.4743,980.0
358.5404,1048.0
358.6065,942.0
358.6726,923.0
358.7387,871.0
358.8049,952.0
358.871,912.0
358.9371,995.0
359.0032,881.0
359.0693,913.0
359.1353,824.0
359.2014,848.0
359.2676,839.0
359.3336,924.0
359.3997,790.0
359.4658,926.0
359.5318,880.0
359.5979,939.0
359.664,826.0
359.7301,897.0
359.7961,841.0
359.8622,912.0
359.9282,783.0
359.9943,945.0
360.0603,806.0
360.1264,948.0
360.1924,820.0
360.2585,917.0
360.3244,868.0
360.3905,887.0
360.4565,814.0
360.5225,922.0
360.5885,868.0
360.6546,954.0
360.7206,805.0
360.7866,931.0
360.8526,885.0
360.9185,902.0
360.9846,819.0
361.0506,922.0
361.1165,791.0
361.1825,894.0
361.2485,857.0
361.3145,937.0
361.3805,829.0
361.4465,919.0
361.5124,805.0
361.5784,912.0
361.6443,806.0
361.7103,900.0
361.7762,799.0
361.8422,956.0
361.9082,828.0
361.9741,901.0
362.04,804.0
362.106,923.0
362.1719,852.0
362.2379,888.0
362.3038,856.0
362.3697,928.0
362.4356,767.0
362.5015,940.0
362.5675,874.0
362.6334,934.0
362.6993,800.0
362.7652,909.0
362.8311,804.0
362.8969,945.0
362.9629,843.0
363.0287,938.0
363.0947,902.0
363.1605,986.0
363.2264,812.0
363.2923,933.0
363.3582,875.0
363.424,925.0
363.4899,811.0
363.5557,928.0
363.6216,866.0
363.6874,915.0
363.7533,860.0
363.8191,919.0
363.885,864.0
363.9508,915.0
364.0167,809.0
364.0825,938.0
364.1483,799.0
364.2142,932.0
364.28,857.0
364.3458,938.0
364.4116,849.0
364.4774,937.0
364.5432,844.0
364.609,894.0
364.6748,821.0
364.7406,956.0
364.8065,822.0
364.8722,910.0
364.938,857.0
365.0038,920.0
365.0696,872.0
365.1354,943.0
365.2011,815.0
365.2669,946.0
365.3326,840.0
365.3984,900.0
365.4642,881.0
365.5299,945.0
365.5957,787.0
365.6614,910.0
365.7272,864.0
365.7929,950.0
365.8587,846.0
365.9244,955.0
365.9902,845.0
366.0559,956.0
366.1216,851.0
366.1873,907.0
366.253,871.0
366.3188,964.0
366.3845,842.0
366.4502,937.0
366.5159,809.0
366.5816,905.0
366.6473,844.0
366.713,909.0
366.7787,820.0
366.8444,884.0
366.91,820.0
366.9757,946.0
367.0414,876.0
367.1071,916.0
367.1727,818.0
367.2384,902.0
367.3041,839.0
367.3697,948.0
367.4354,792.0
367.501,921.0
367.5667,767.0
367.6323,889.0
367.698,860.0
367.7636,904.0
367.8292,834.0
367.8948,897.0
367.9605,794.0
368.0261,876.0
368.0918,754.0
368.1573,911.0
368.223,790.0
368.2885,903.0
368.3542,770.0
368.4198,885.0
368.4854,799.0
368.551,887.0
368.6165,739.0
368.6821,873.0
368.7477,816.0
368.8133,901.0
368.8789,809.0
368.9445,873.0
369.01,812.0
369.0756,870.0
369.1411,830.0
369.2067,880.0
369.2723,780.0
369.3379,870.0
369.4034,849.0
369.4689,829.0
369.5345,820.0
369.6,874.0
369.6656,761.0
369.7311,866.0
369.7966,818.0
369.8622,880.0
369.9277,807.0
369.9932,870.0
370.0587,793.0
370.1242,857.0
370.1897,808.0
370.2552,861.0
370.3207,763.0
370.3862,886.0
370.4517,794.0
370.5172,852.0
370.5827,788.0
370.6482,871.0
370.7136,801.0
370.7791,867.0
370.8446,802.0
370.9101,914.0
370.9756,797.0
371.041,900.0
371.1064,811.0
371.1719,877.0
371.2373,827.0
371.3028,886.0
371.3683,830.0
371.4337,915.0
371.4991,850.0
371.5646,901.0
371.63,829.0
371.6954,871.0
371.7608,781.0
371.8263,905.0
371.8917,768.0
371.9571,880.0
372.0225,793.0
372.0879,906.0
372.1533,810.0
372.2187,928.0
372.2841,802.0
372.3495,932.0
372.4149,837.0
372.4803,893.0
372.5457,822.0
372.611,943.0
372.6764,792.0
372.7418,910.0
372.8071,832.0
372.8725,915.0
372.9379,855.0
373.0032,928.0
373.0686,845.0
373.1339,914.0
373.1992,831.0
373.2646,927.0
373.3299,812.0
373.3953,906.0
373.4606,843.0
373.5259,901.0
373.5912,841.0
373.6566,934.0
373.7219,787.0
373.7872,917.0
373.8525,838.0
373.9178,932.0
373.9831,841.0
374.0484,929.0
374.1137,826.0
374.179,943.0
374.2443,860.0
374.3096,936.0
374.3749,858.0
374.4401,911.0
374.5054,821.0
374.5706,878.0
374.636,844.0
374.7012,941.0
374.7665,877.0
374.8318,922.0
374.897,827.0
374.9622,874.0
375.0275,784.0
375.0927,906.0
375.158,869.0
375.2232,871.0
375.2885,851.0
375.3537,976.0
375.4189,835.0
375.4841,948.0
375.5493,861.0
375.6145,913.0
375.6797,878.0
375.745,949.0
375.8101,806.0
375.8754,932.0
375.9406,814.0
376.0057,927.0
376.071,820.0
376.1361,959.0
376.2013,856.0
376.2665,933.0
376.3317,809.0
376.3969,928.0
376.462,821.0
376.5272,966.0
376.5923,884.0
376.6575,940.0
376.7226,874.0
376.7878,918.0
376.8529,843.0
376.9181,972.0
376.9832,854.0
377.0483,905.0
377.1135,829.0
377.1786,887.0
377.2437,844.0
377.3089,925.0
377.374,848.0
377.4391,950.0
377.5042,843.0
377.5693,870.0
377.6344,828.0
377.6995,930.0
377.7646,881.0
377.8297,939.0
377.8948,895.0
377.9599,892.0
378.025,887.0
378.09,938.0
378.1551,859.0
378.2202,973.0
378.2852,860.0
378.3503,949.0
378.4154,851.0
378.4804,945.0
378.5455,846.0
378.6105,946.0
378.6755,870.0
378.7406,919.0
378.8057,892.0
378.8707,933.0
378.9357,857.0
379.0008,965.0
379.0658,841.0
379.1308,910.0
379.1958,908.0
379.2609,964.0
379.3259,886.0
379.3908,990.0
379.4558,895.0
379.5208,962.0
379.5858,880.0
379.6509,973.0
379.7159,901.0
379.7808,933.0
379.8458,909.0
379.9108,990.0
379.9758,888.0
380.0407,974.0
380.1057,924.0
380.1707,998.0
380.2356,893.0
380.3006,996.0
380.3655,921.0
380.4305,1006.0
380.4955,899.0
380.5604,996.0
380.6253,918.0
380.6902,1022.0
380.7552,943.0
380.8201,1041.0
380.885,912.0
380.95,971.0
381.0149,929.0
381.0798,1025.0
381.1447,924.0
381.2096,1066.0
381.2745,935.0
381.3394,1008.0
381.4043,978.0
381.4692,996.0
381.5341,977.0
381.5989,1065.0
381.6638,948.0
381.7287,1031.0
381.7936,928.0
381.8585,1052.0
381.9233,1012.0
381.9882,1074.0
382.053,1003.0
382.1179,1074.0
382.1828,968.0
382.2476,1080.0
382.3124,969.0
382.3773,1059.0
382.4421,1051.0
382.507,1074.0
382.5718,976.0
382.6366,1048.0
382.7014,1013.0
382.7663,1079.0
382.8311,967.0
382.8959,1108.0
382.9607,986.0
383.0255,1092.0
383.0903,1047.0
383.1551,1129.0
383.2199,990.0
383.2847,1071.0
383.3495,1012.0
383.4143,1085.0
383.479,992.0
383.5438,1077.0
383.6086,973.0
383.6734,1072.0
383.7381,988.0
383.8029,1112.0
383.8676,1052.0
383.9324,1084.0
383.9972,1032.0
384.0619,1152.0
384.1266,988.0
384.1914,1100.0
384.2562,1012.0
384.3209,1086.0
384.3856,982.0
384.4503,1132.0
384.515,1056.0
384.5797,1132.0
384.6445,1069.0
384.7092,1183.0
384.7739,1150.0
384.8386,1248.0
384.9033,1208.0
384.968,1250.0
385.0327,1207.0
385.0974,1203.0
385.162,1182.0
385.2267,1214.0
385.2914,1187.0
385.3561,1259.0
385.4208,1203.0
385.4854,1211.0
385.5501,1111.0
385.6147,1147.0
385.6794,1099.0
385.7441,1205.0
385.8087,1137.0
385.8734,1227.0
385.938,1165.0
386.0027,1297.0
386.0673,1326.0
386.1319,1292.0
386.1966,1121.0
386.2612,1150.0
386.3258,1068.0
386.3904,1083.0
386.455,1068.0
386.5196,1176.0
386.5843,1083.0
386.6489,1238.0
386.7135,1203.0
386.778,1258.0
386.8426,1226.0
386.9072,1419.0
386.9718,1351.0
387.0364,1523.0
387.101,1399.0
387.1655,1185.0
387.2301,1001.0
387.2946,1087.0
387.3593,1019.0
387.4238,1107.0
387.4884,994.0
387.5529,1110.0
387.6175,1023.0
387.682,1155.0
387.7466,1075.0
387.8111,1293.0
387.8756,1181.0
387.9402,1359.0
388.0047,1315.0
388.0692,1525.0
388.1337,1480.0
388.1982,1782.0
388.2628,1551.0
388.3272,1291.0
388.3918,1018.0
388.4563,1030.0
388.5208,911.0
388.5852,1009.0
388.6497,885.0
388.7142,935.0
388.7787,905.0
388.8432,973.0
388.9077,862.0
388.9721,942.0
389.0366,843.0
389.1011,958.0
389.1655,830.0
389.23,957.0
389.2944,865.0
389.3589,951.0
389.4233,853.0
389.4878,935.0
389.5522,824.0
389.6167,938.0
389.6811,845.0
389.7455,968.0
389.8099,863.0
389.8744,946.0
389.9388,887.0
390.0032,940.0
390.0676,892.0
390.132,959.0
390.1964,875.0
390.2608,923.0
390.3252,846.0
390.3896,940.0
390.454,929.0
390.5184,979.0
390.5827,847.0
390.6471,977.0
390.7115,868.0
390.7759,938.0
390.8402,895.0
390.9046,973.0
390.9689,912.0
391.0333,932.0
391.0977,909.0
391.162,951.0
391.2264,846.0
391.2907,960.0
391.355,916.0
391.4193,964.0
391.4837,845.0
391.548,1027.0
391.6123,888.0
391.6767,976.0
391.741,894.0
391.8053,1024.0
391.8696,869.0
391.9339,982.0
391.9982,876.0
392.0625,995.0
392.1268,940.0
392.1911,1006.0
392.2553,881.0
392.3196,946.0
392.3839,881.0
392.4482,936.0
392.5125,947.0
392.5767,992.0
392.641,941.0
392.7053,990.0
392.7695,884.0
392.8338,1061.0
392.898,910.0
392.9622,964.0
393.0265,963.0
393.0908,966.0
393.155,970.0
393.2192,987.0
393.2834,934.0
393.3477,967.0
393.4118,927.0
393.476,1029.0
393.5403,857.0
393.6045,997.0
393.6687,921.0
393.7329,961.0
393.7971,876.0
393.8613,970.0
393.9255,882.0
393.9897,1002.0
394.0539,902.0
394.118,990.0
394.1822,835.0
394.2464,955.0
394.3105,915.0
394.3747,991.0
394.4389,925.0
394.503,971.0
394.5672,877.0
394.6313,959.0
394.6954,923.0
394.7596,958.0
394.8238,871.0
394.8879,948.0
394.952,885.0
395.0161,937.0
395.0803,855.0
395.1444,995.0
395.2085,878.0
395.2726,912.0
395.3367,924.0
395.4008,977.0
395.4649,875.0
395.529,951.0
395.5931,894.0
395.6572,962.0
395.7213,862.0
395.7854,951.0
395.8495,857.0
395.9135,907.0
395.9776,917.0
396.0417,945.0
396.1057,891.0
396.1698,912.0
396.2339,803.0
396.2979,932.0
396.362,840.0
396.426,969.0
396.4901,888.0
396.5541,941.0
396.6181,896.0
396.6821,944.0
396.7462,872.0
396.8102,940.0
396.8743,840.0
396.9383,960.0
397.0023,840.0
397.0662,906.0
397.1302,838.0
397.1943,974.0
397.2583,892.0
397.3223,926.0
397.3862,869.0
397.4502,923.0
397.5142,851.0
397.5782,938.0
397.6422,861.0
397.7061,876.0
397.7701,855.0
397.8341,921.0
397.898,815.0
397.962,938.0
398.0259,866.0
398.0899,943.0
398.1538,842.0
398.2178,951.0
398.2817,899.0
398.3456,947.0
398.4096,851.0
398.4735,945.0
398.5374,833.0
398.6013,933.0
398.6653,849.0
398.7292,943.0
398.7931,876.0
398.857,976.0
398.9209,862.0
398.9848,968.0
399.0487,905.0
399.1125,988.0
399.1765,922.0
399.2404,923.0
399.3042,892.0
399.3681,986.0
399.432,868.0
399.4958,971.0
399.5597,879.0
399.6236,946.0
399.6875,935.0
399.7513,1006.0
399.8152,927.0
399.879,969.0
399.9428,893.0
400.0067,969.0
400.0705,871.0
400.1343,985.0
400.1982,902.0
400.262,1010.0
400.3258,902.0
400.3896,951.0
400.4534,882.0
400.5172,945.0
400.581,913.0
400.6448,1017.0
400.7086,871.0
400.7724,975.0
400.8362,884.0
400.9,984.0
400.9638,890.0
401.0276,965.0
401.0913,911.0
401.1551,962.0
401.2189,894.0
401.2826,981.0
401.3464,884.0
401.4102,969.0
401.4739,869.0
401.5376,971.0
401.6014,896.0
401.6651,1010.0
401.7289,900.0
401.7926,950.0
401.8564,899.0
401.92,1024.0
401.9838,925.0
402.0475,968.0
402.1112,917.0
402.175,1005.0
402.2386,870.0
402.3023,948.0
402.366,906.0
402.4297,986.0
402.4934,960.0
402.5571,947.0
402.6208,948.0
402.6845,957.0
402.7482,857.0
402.8118,1004.0
402.8755,923.0
402.9392,1016.0
403.0028,926.0
403.0665,1012.0
403.1301,932.0
403.1938,1009.0
403.2574,918.0
403.3211,1023.0
403.3847,916.0
403.4484,992.0
403.512,906.0
403.5756,991.0
403.6393,949.0
403.7029,986.0
403.7665,920.0
403.8301,995.0
403.8937,875.0
403.9573,978.0
404.0209,849.0
404.0845,1022.0
404.1481,877.0
404.2117,1011.0
404.2753,933.0
404.3389,986.0
404.4024,897.0
404.466,960.0
404.5296,871.0
404.5932,1032.0
404.6567,933.0
404.7203,1008.0
404.7838,914.0
404.8474,977.0
404.9109,826.0
404.9745,1020.0
405.0381,934.0
405.1016,1059.0
405.1651,872.0
405.2286,969.0
405.2922,898.0
405.3557,965.0
405.4193,925.0
405.4828,974.0
405.5462,896.0
405.6097,969.0
405.6733,900.0
405.7368,1044.0
405.8003,913.0
405.8638,966.0
405.9272,890.0
405.9907,994.0
406.0542,886.0
406.1177,1004.0
406.1812,917.0
406.2446,963.0
406.3081,889.0
406.3716,1001.0
406.435,928.0
406.4985,982.0
406.562,903.0
406.6254,1020.0
406.6888,914.0
406.7523,978.0
406.8157,963.0
406.8791,1031.0
406.9426,934.0
407.006,1015.0
407.0694,953.0
407.1328,1019.0
407.1962,955.0
407.2597,1013.0
407.3231,969.0
407.3865,1060.0
407.4499,935.0
407.5133,1069.0
407.5767,1040.0
407.64,1034.0
407.7034,970.0
407.7668,1027.0
407.8302,960.0
407.8936,1028.0
407.9569,989.0
408.0203,1019.0
408.0836,987.0
408.147,1086.0
408.2104,984.0
408.2737,1054.0
408.3371,1019.0
408.4004,1051.0
408.4637,977.0
408.5271,1082.0
408.5905,963.0
408.6537,1031.0
408.7171,921.0
408.7804,1040.0
408.8437,973.0
408.907,1031.0
408.9703,955.0
409.0336,1066.0
409.0969,960.0
409.1602,1064.0
409.2235,1005.0
409.2868,1045.0
409.3501,949.0
409.4134,1052.0
409.4767,948.0
409.5399,1048.0
409.6032,980.0
409.6665,1050.0
409.7297,1010.0
409.793,1008.0
409.8563,960.0
409.9195,1062.0
409.9827,951.0
410.046,1029.0
410.1092,980.0
410.1725,1064.0
410.2357,981.0
410.299,1033.0
410.3622,960.0
410.4254,1024.0
410.4886,936.0
410.5518,1048.0
410.615,976.0
410.6782,994.0
410.7414,942.0
410.8046,1050.0
410.8678,922.0
410.931,1046.0
410.9942,883.0
411.0574,969.0
411.1205,877.0
411.1837,983.0
411.2469,977.0
411.3101,1003.0
411.3733,936.0
411.4364,1002.0
411.4995,873.0
411.5627,980.0
411.6259,915.0
411.689,1022.0
411.7521,903.0
411.8153,1014.0
411.8784,954.0
411.9415,983.0
412.0046,923.0
412.0678,1025.0
412.1309,929.0
412.194,965.0
412.2571,911.0
412.3203,959.0
412.3833,918.0
412.4464,1024.0
412.5096,924.0
412.5727,943.0
412.6357,943.0
412.6988,1025.0
412.7619,880.0
412.825,960.0
412.8881,917.0
412.9511,955.0
413.0142,910.0
413.0772,996.0
413.1403,888.0
413.2033,990.0
413.2664,911.0
413.3294,995.0
413.3925,890.0
413.4555,988.0
413.5186,881.0
413.5816,945.0
413.6446,893.0
413.7076,949.0
413.7707,884.0
413.8337,944.0
413.8967,912.0
413.9597,954.0
414.0227,928.0
414.0857,994.0
414.1487,872.0
414.2117,892.0
414.2747,895.0
414.3376,1000.0
414.4006,909.0
414.4636,954.0
414.5266,864.0
414.5896,983.0
414.6525,900.0
414.7155,956.0
414.7784,903.0
414.8414,976.0
414.9044,969.0
414.9673,1056.0
415.0303,926.0
415.0932,999.0
415.1561,994.0
415.2191,1038.0
415.282,890.0
415.3449,1029.0
415.4079,907.0
415.4708,997.0
415.5336,889.0
415.5966,1007.0
415.6595,938.0
415.7224,1063.0
415.7853,938.0
415.8482,958.0
415.9111,911.0
415.9739,1017.0
416.0368,917.0
416.0997,1007.0
416.1626,887.0
416.2255,983.0
416.2883,918.0
416.3512,972.0
416.414,897.0
416.4769,1041.0
416.5397,929.0
416.6026,1027.0
416.6654,946.0
416.7283,964.0
416.7911,974.0
416.8539,964.0
416.9167,927.0
416.9796,1019.0
417.0424,956.0
417.1052,1021.0
417.168,942.0
417.2308,991.0
417.2936,903.0
417.3564,1068.0
417.4193,932.0
417.4821,983.0
417.5448,893.0
417.6076,1029.0
417.6704,930.0
417.7332,1036.0
417.796,921.0
417.8587,1000.0
417.9215,938.0
417.9842,1037.0
418.047,928.0
418.1098,950.0
418.1725,922.0
418.2353,969.0
418.298,900.0
418.3607,958.0
418.4235,831.0
418.4862,985.0
418.549,902.0
418.6117,968.0
418.6744,917.0
418.7371,1029.0
418.7998,920.0
418.8625,963.0
418.9252,910.0
418.9879,970.0
419.0507,886.0
419.1133,950.0
419.176,879.0
419.2387,977.0
419.3014,837.0
419.3641,1043.0
419.4268,995.0
419.4894,1019.0
419.5521,984.0
419.6147,1030.0
419.6774,949.0
419.7401,1015.0
419.8027,885.0
419.8654,950.0
419.928,871.0
419.9906,936.0
420.0533,935.0
420.1159,944.0
420.1785,887.0
420.2411,961.0
420.3038,872.0
420.3664,985.0
420.429,882.0
420.4916,943.0
420.5542,850.0
420.6168,956.0
420.6794,900.0
420.742,931.0
420.8046,909.0
420.8672,969.0
420.9297,920.0
420.9923,1026.0
421.0549,869.0
421.1175,1004.0
421.18,892.0
421.2426,996.0
421.3052,911.0
421.3677,1006.0
421.4303,934.0
421.4928,1004.0
421.5554,896.0
421.6179,977.0
421.6804,891.0
421.743,917.0
421.8055,880.0
421.868,976.0
421.9305,864.0
421.993,969.0
422.0556,872.0
422.1181,938.0
422.1806,826.0
422.2431,970.0
422.3055,872.0
422.368,924.0
422.4305,839.0
422.493,947.0
422.5555,841.0
422.618,958.0
422.6805,956.0
422.7429,953.0
422.8054,933.0
422.8679,964.0
422.9303,885.0
422.9928,992.0
423.0552,892.0
423.1177,958.0
423.1801,874.0
423.2425,1020.0
423.305,874.0
423.3674,910.0
423.4298,891.0
423.4922,957.0
423.5547,892.0
423.617,989.0
423.6795,849.0
423.7419,993.0
423.8043,930.0
423.8667,996.0
423.9291,918.0
423.9915,1010.0
424.0538,940.0
424.1163,979.0
424.1786,956.0
424.241,1011.0
424.3034,939.0
424.3658,1014.0
424.4281,891.0
424.4905,1040.0
424.5529,949.0
424.6152,1047.0
424.6775,979.0
424.7399,1023.0
424.8022,944.0
424.8646,996.0
424.9269,957.0
424.9892,1005.0
425.0515,979.0
425.1139,982.0
425.1762,916.0
425.2385,1062.0
425.3008,952.0
425.3631,1023.0
425.4254,939.0
425.4877,1042.0
425.55,977.0
425.6123,1024.0
425.6746,1003.0
425.7369,1053.0
425.7992,971.0
425.8614,1068.0
425.9237,976.0
425.9859,1015.0
426.0482,964.0
426.1105,1065.0
426.1727,976.0
426.235,1020.0
426.2972,977.0
426.3595,1058.0
426.4217,992.0
426.4839,1100.0
426.5462,978.0
426.6084,1058.0
426.6706,969.0
426.7328,1068.0
426.795,994.0
426.8573,1033.0
426.9195,993.0
426.9817,1044.0
427.0439,982.0
427.1061,1079.0
427.1683,1040.0
427.2305,1016.0
427.2927,990.0
427.3549,1047.0
427.417,963.0
427.4792,1030.0
427.5413,944.0
427.6035,1075.0
427.6657,963.0
427.7278,1045.0
427.79,1027.0
427.8521,1018.0
427.9142,951.0
427.9764,969.0
428.0386,946.0
428.1007,1005.0
428.1628,947.0
428.2249,1055.0
428.287,970.0
428.3492,1081.0
428.4113,928.0
428.4734,1041.0
428.5355,947.0
428.5976,1041.0
428.6597,958.0
428.7218,988.0
428.7839,924.0
428.846,1035.0
428.9081,912.0
428.9702,999.0
429.0322,950.0
429.0943,1050.0
429.1563,955.0
429.2184,1018.0
429.2805,913.0
429.3425,993.0
429.4046,895.0
429.4666,969.0
429.5287,925.0
429.5908,962.0
429.6528,908.0
429.7148,977.0
429.7768,892.0
429.8388,928.0
429.9008,909.0
429.9629,918.0
430.0249,848.0
430.0869,968.0
430.1489,866.0
430.2109,950.0
430.2729,859.0
430.3349,944.0
430.3969,866.0
430.4589,973.0
430.5208,863.0
430.5828,915.0
430.6448,872.0
430.7068,945.0
430.7688,878.0
430.8307,935.0
430.8926,883.0
430.9546,954.0
431.0165,878.0
431.0785,899.0
431.1404,857.0
431.2024,919.0
431.2643,851.0
431.3262,985.0
431.3881,887.0
431.4501,922.0
431.512,883.0
431.5739,957.0
431.6358,852.0
431.6977,925.0
431.7596,863.0
431.8215,925.0
431.8834,844.0
431.9453,954.0
432.0072,882.0
432.0691,925.0
432.131,806.0
432.1928,924.0
432.2547,829.0
432.3165,899.0
432.3784,806.0
432.4403,907.0
432.5021,836.0
432.564,942.0
432.6258,783.0
432.6876,927.0
432.7495,811.0
432.8113,882.0
432.8732,809.0
432.935,857.0
432.9968,809.0
433.0586,849.0
433.1204,837.0
433.1823,914.0
433.2441,814.0
433.3059,890.0
433.3677,836.0
433.4295,922.0
433.4912,835.0
433.5531,917.0
433.6148,831.0
433.6766,882.0
433.7384,777.0
433.8001,921.0
433.8619,844.0
433.9237,939.0
433.9854,843.0
434.0472,908.0
434.1089,818.0
434.1707,870.0
434.2324,849.0
434.2942,929.0
434.3559,856.0
434.4177,943.0
434.4794,859.0
434.5411,884.0
434.6028,884.0
434.6645,896.0
434.7263,845.0
434.788,943.0
434.8497,850.0
434.9113,902.0
434.973,842.0
435.0347,930.0
435.0965,843.0
435.1581,925.0
435.2198,869.0
435.2815,925.0
435.3431,849.0
435.4048,907.0
435.4665,874.0
435.5282,926.0
435.5898,866.0
435.6515,928.0
435.7131,881.0
435.7747,981.0
435.8363,845.0
435.898,935.0
435.9597,872.0
436.0213,940.0
436.0829,806.0
436.1445,984.0
436.2061,821.0
436.2678,900.0
436.3294,886.0
436.391,919.0
436.4525,850.0
436.5141,920.0
436.5757,868.0
436.6373,881.0
436.6989,839.0
436.7605,929.0
436.8221,856.0
436.8836,928.0
436.9452,830.0
437.0067,957.0
437.0684,880.0
437.1299,912.0
437.1914,826.0
437.253,937.0
437.3145,854.0
437.3761,910.0
437.4376,774.0
437.4992,951.0
437.5607,858.0
437.6222,869.0
437.6837,837.0
437.7452,897.0
437.8067,877.0
437.8683,913.0
437.9298,856.0
437.9913,944.0
438.0528,856.0
438.1143,970.0
438.1757,798.0
438.2372,912.0
438.2987,820.0
438.3602,902.0
438.4217,835.0
438.4831,909.0
438.5446,852.0
438.6061,946.0
438.6675,833.0
438.729,883.0
438.7904,796.0
438.8519,906.0
438.9133,879.0
438.9747,892.0
439.0362,813.0
439.0976,888.0
439.159,827.0
439.2204,931.0
439.2819,806.0
439.3433,910.0
439.4047,850.0
439.4661,905.0
439.5275,873.0
439.5889,863.0
439.6503,773.0
439.7116,927.0
439.7731,832.0
439.8345,962.0
439.8958,821.0
439.9572,922.0
440.0186,855.0
440.0799,948.0
440.1413,829.0
440.2027,940.0
440.264,819.0
440.3253,919.0
440.3867,840.0
440.448,952.0
440.5093,836.0
440.5707,945.0
440.632,821.0
440.6934,906.0
440.7546,842.0
440.816,936.0
440.8773,804.0
440.9386,894.0
440.9999,823.0
441.0612,901.0
441.1225,892.0
441.1838,932.0
441.2451,833.0
441.3063,925.0
441.3677,838.0
441.429,942.0
441.4902,788.0
441.5515,912.0
441.6127,836.0
441.674,917.0
441.7353,851.0
441.7965,908.0
441.8578,788.0
441.919,914.0
441.9802,850.0
442.0414,977.0
442.1027,856.0
442.164,922.0
442.2252,861.0
442.2864,891.0
442.3476,844.0
442.4088,950.0
442.47,841.0
442.5312,936.0
442.5924,875.0
442.6536,958.0
442.7148,857.0
442.776,912.0
442.8372,806.0
442.8984,857.0
442.9596,809.0
443.0207,926.0
443.0819,816.0
443.143,883.0
443.2042,806.0
443.2653,918.0
443.3265,853.0
443.3877,926.0
443.4488,857.0
443.5099,955.0
443.5711,843.0
443.6322,900.0
443.6934,849.0
443.7545,964.0
443.8156,861.0
443.8767,879.0
443.9378,854.0
443.9989,900.0
444.0601,850.0
444.1212,912.0
444.1822,867.0
444.2433,975.0
444.3044,878.0
444.3654,907.0
444.4265,838.0
444.4877,905.0
444.5487,835.0
444.6098,973.0
444.6708,893.0
444.7319,947.0
444.7929,812.0
444.854,889.0
444.915,882.0
444.9761,926.0
445.0371,833.0
445.0981,920.0
445.1592,818.0
445.2203,897.0
445.2812,825.0
445.3423,930.0
445.4033,866.0
445.4643,921.0
445.5253,832.0
445.5862,982.0
445.6473,801.0
445.7083,927.0
445.7693,858.0
445.8303,880.0
445.8912,843.0
445.9522,872.0
446.0132,847.0
446.0742,899.0
446.1352,822.0
446.1961,931.0
446.257,830.0
446.318,905.0
446.379,827.0
446.4399,845.0
446.5009,827.0
446.5618,935.0
446.6227,818.0
446.6836,895.0
446.7446,812.0
446.8055,883.0
446.8664,837.0
446.9273,891.0
446.9883,855.0
447.0491,916.0
447.11,783.0
447.171,906.0
447.2319,759.0
447.2927,925.0
447.3536,816.0
447.4145,851.0
447.4753,829.0
447.5363,867.0
447.5971,774.0
447.658,888.0
447.7188,795.0
447.7797,836.0
447.8405,801.0
447.9014,847.0
447.9623,788.0
448.0231,871.0
448.0839,784.0
448.1447,866.0
448.2056,765.0
448.2664,868.0
448.3272,791.0
448.3881,846.0
448.4489,803.0
448.5096,870.0
448.5705,784.0
448.6312,825.0
448.6921,789.0
448.7529,871.0
448.8137,767.0
448.8744,880.0
448.9352,782.0
448.9959,826.0
449.0567,787.0
449.1175,881.0
449.1783,750.0
449.239,855.0
449.2998,767.0
449.3605,873.0
449.4213,724.0
449.4821,849.0
449.5428,749.0
449.6035,871.0
449.6642,718.0
449.725,832.0
449.7857,768.0
449.8464,842.0
449.9071,737.0
449.9679,857.0
450.0285,744.0
450.0892,848.0
450.1499,773.0
450.2106,810.0
450.2714,790.0
450.332,826.0
450.3927,736.0
450.4534,848.0
450.514,747.0
450.5747,847.0
450.6354,789.0
450.696,820.0
450.7567,716.0
450.8174,873.0
450.878,783.0
450.9386,860.0
450.9993,756.0
451.0599,854.0
451.1206,772.0
451.1812,835.0
451.2418,746.0
451.3024,810.0
451.363,729.0
451.4236,850.0
451.4843,739.0
451.5449,857.0
451.6054,749.0
451.666,844.0
451.7267,773.0
451.7873,801.0
451.8478,726.0
451.9084,868.0
451.969,738.0
452.0295,816.0
452.0901,784.0
452.1507,831.0
452.2113,684.0
452.2718,811.0
452.3324,706.0
452.3929,798.0
452.4534,759.0
452.5139,792.0
452.5745,731.0
452.635,833.0
452.6956,753.0
452.7561,799.0
452.8166,782.0
452.8771,831.0
452.9377,748.0
452.9981,868.0
453.0586,743.0
453.1191,887.0
453.1796,781.0
453.2401,842.0
453.3006,776.0
453.3611,805.0
453.4216,743.0
453.4821,854.0
453.5425,779.0
453.6029,856.0
453.6634,750.0
453.7239,849.0
453.7844,787.0
453.8448,853.0
453.9052,746.0
453.9656,837.0
454.0261,782.0
454.0866,899.0
454.147,748.0
454.2074,837.0
454.2678,764.0
454.3282,841.0
454.3886,771.0
454.449,860.0
454.5095,774.0
454.5699,854.0
454.6302,816.0
454.6906,867.0
454.751,766.0
454.8114,893.0
454.8718,805.0
454.9322,856.0
454.9925,719.0
455.0529,837.0
455.1133,804.0
455.1736,840.0
455.234,812.0
455.2943,845.0
455.3547,784.0
455.415,874.0
455.4753,774.0
455.5357,852.0
455.5959,784.0
455.6563,818.0
455.7167,761.0
455.777,899.0
455.8373,840.0
455.8976,854.0
455.9579,803.0
456.0182,846.0
456.0785,775.0
456.1388,866.0
456.1991,781.0
456.2593,889.0
456.3196,777.0
456.3799,887.0
456.4402,791.0
456.5005,860.0
456.5607,790.0
456.621,834.0
456.6812,779.0
456.7414,821.0
456.8018,784.0
456.862,823.0
456.9222,765.0
456.9825,839.0
457.0426,758.0
457.1028,796.0
457.1631,761.0
457.2234,884.0
457.2835,783.0
457.3438,857.0
457.404,786.0
457.4641,866.0
457.5244,720.0
457.5846,861.0
457.6447,772.0
457.7049,849.0
457.7651,817.0
457.8253,850.0
457.8854,746.0
457.9456,850.0
458.0058,708.0
458.0659,844.0
458.1261,765.0
458.1862,883.0
458.2464,715.0
458.3066,860.0
458.3667,754.0
458.4268,862.0
458.4869,809.0
458.5471,737.0
458.6072,612.0
458.6674,703.0
458.7274,605.0
458.7876,682.0
458.8477,642.0
458.9077,668.0
458.9679,585.0
459.0279,706.0
459.0881,607.0
459.1481,665.0
459.2082,600.0
459.2683,704.0
459.3283,625.0
459.3884,733.0
459.4485,640.0
459.5086,672.0
459.5686,628.0
459.6287,674.0
459.6887,594.0
459.7487,706.0
459.8088,642.0
459.8688,660.0
459.9289,645.0
459.9889,733.0
460.0489,639.0
460.1089,709.0
460.1689,658.0
460.229,690.0
460.289,612.0
