Laser settings:
	Diode frequency:	5 Hz
	Pulses fired:		105
	Q-Switch blanking:	5
	Q-Switch delay:		201 μs
	Q-Switch presync:	1 μs
Spectrometer settings:
	Integration time:	0.0090 ms
	Integration delay:	0.000 ns
	Averaging:		1
	Trigger mode:		External
	Dynamic Dark Correction:		Disabled


wavelength,intensity
184.9409,671.0
185.0142,578.0
185.0875,670.0
185.1608,620.0
185.2341,646.0
185.3074,601.0
185.3807,701.0
185.454,645.0
185.5273,688.0
185.6006,653.0
185.6739,668.0
185.7472,618.0
185.8205,676.0
185.8938,622.0
185.9671,726.0
186.0403,596.0
186.1136,663.0
186.1869,590.0
186.2601,661.0
186.3334,603.0
186.4067,640.0
186.4799,595.0
186.5532,677.0
186.6265,628.0
186.6997,717.0
186.773,640.0
186.8462,679.0
186.9195,616.0
186.9928,646.0
187.066,608.0
187.1392,670.0
187.2125,615.0
187.2857,678.0
187.3589,633.0
187.4322,706.0
187.5054,637.0
187.5786,675.0
187.6519,631.0
187.7251,706.0
187.7983,639.0
187.8715,714.0
187.9447,619.0
188.018,705.0
188.0912,569.0
188.1644,705.0
188.2376,643.0
188.3108,713.0
188.384,602.0
188.4572,684.0
188.5304,662.0
188.6036,721.0
188.6768,680.0
188.75,721.0
188.8232,642.0
188.8963,713.0
188.9695,672.0
189.0427,694.0
189.1159,656.0
189.1891,729.0
189.2623,670.0
189.3354,704.0
189.4086,667.0
189.4818,738.0
189.5549,634.0
189.6281,725.0
189.7012,656.0
189.7744,713.0
189.8476,617.0
189.9207,727.0
189.9939,668.0
190.067,700.0
190.1402,680.0
190.2133,712.0
190.2864,679.0
190.3596,764.0
190.4327,680.0
190.5059,706.0
190.579,666.0
190.6521,751.0
190.7253,654.0
190.7984,706.0
190.8715,655.0
190.9446,739.0
191.0177,673.0
191.0908,723.0
191.164,629.0
191.2371,757.0
191.3102,673.0
191.3833,696.0
191.4564,659.0
191.5295,752.0
191.6026,658.0
191.6757,778.0
191.7488,656.0
191.8219,719.0
191.895,688.0
191.968,719.0
192.0411,671.0
192.1142,778.0
192.1873,645.0
192.2604,788.0
192.3334,687.0
192.4065,819.0
192.4796,719.0
192.5527,782.0
192.6257,668.0
192.6988,803.0
192.7718,769.0
192.8449,859.0
192.918,901.0
192.991,990.0
193.064,1097.0
193.1371,1194.0
193.2101,1053.0
193.2832,998.0
193.3562,887.0
193.4292,886.0
193.5023,777.0
193.5753,856.0
193.6484,747.0
193.7214,829.0
193.7944,737.0
193.8674,832.0
193.9405,698.0
194.0135,829.0
194.0865,696.0
194.1595,790.0
194.2325,752.0
194.3055,795.0
194.3785,708.0
194.4515,812.0
194.5246,709.0
194.5975,792.0
194.6705,693.0
194.7435,792.0
194.8165,672.0
194.8895,816.0
194.9625,714.0
195.0355,764.0
195.1085,684.0
195.1815,764.0
195.2544,682.0
195.3274,791.0
195.4004,706.0
195.4734,748.0
195.5463,676.0
195.6193,759.0
195.6923,755.0
195.7652,767.0
195.8382,702.0
195.9111,764.0
195.9841,725.0
196.057,783.0
196.13,729.0
196.2029,767.0
196.2759,682.0
196.3488,738.0
196.4218,703.0
196.4947,770.0
196.5676,713.0
196.6406,815.0
196.7135,711.0
196.7864,813.0
196.8593,721.0
196.9323,744.0
197.0052,761.0
197.0781,789.0
197.151,740.0
197.2239,774.0
197.2969,680.0
197.3697,784.0
197.4427,678.0
197.5156,804.0
197.5885,717.0
197.6614,766.0
197.7343,698.0
197.8072,813.0
197.88,694.0
197.9529,736.0
198.0258,715.0
198.0987,811.0
198.1716,696.0
198.2445,759.0
198.3173,718.0
198.3902,747.0
198.4631,721.0
198.5359,816.0
198.6088,659.0
198.6817,791.0
198.7545,707.0
198.8274,760.0
198.9003,730.0
198.9731,747.0
199.046,699.0
199.1188,779.0
199.1917,726.0
199.2645,775.0
199.3373,697.0
199.4102,751.0
199.483,711.0
199.5559,713.0
199.6287,753.0
199.7015,762.0
199.7744,739.0
199.8472,759.0
199.92,710.0
199.9928,772.0
200.0656,693.0
200.1385,761.0
200.2113,719.0
200.2841,749.0
200.3569,664.0
200.4297,804.0
200.5025,666.0
200.5753,763.0
200.6481,696.0
200.7209,734.0
200.7937,686.0
200.8665,755.0
200.9393,653.0
201.0121,802.0
201.0848,695.0
201.1576,795.0
201.2304,665.0
201.3032,758.0
201.3759,737.0
201.4487,749.0
201.5215,751.0
201.5943,788.0
201.667,685.0
201.7398,768.0
201.8125,676.0
201.8853,755.0
201.958,670.0
202.0308,816.0
202.1035,696.0
202.1763,756.0
202.249,715.0
202.3218,759.0
202.3945,662.0
202.4673,792.0
202.54,724.0
202.6127,779.0
202.6855,651.0
202.7582,765.0
202.8309,660.0
202.9036,746.0
202.9764,649.0
203.0491,747.0
203.1218,662.0
203.1945,782.0
203.2672,739.0
203.3399,752.0
203.4126,715.0
203.4853,757.0
203.558,705.0
203.6307,747.0
203.7034,708.0
203.7761,781.0
203.8488,756.0
203.9215,740.0
203.9942,713.0
204.0669,780.0
204.1395,696.0
204.2122,774.0
204.2849,684.0
204.3576,758.0
204.4302,688.0
204.5029,790.0
204.5756,723.0
204.6482,792.0
204.7209,687.0
204.7935,768.0
204.8662,687.0
204.9389,797.0
205.0115,722.0
205.0842,765.0
205.1568,726.0
205.2294,711.0
205.3021,714.0
205.3747,767.0
205.4474,716.0
205.52,795.0
205.5926,683.0
205.6653,779.0
205.7379,687.0
205.8105,748.0
205.8831,735.0
205.9557,729.0
206.0284,697.0
206.101,773.0
206.1736,690.0
206.2462,795.0
206.3188,706.0
206.3914,752.0
206.464,712.0
206.5366,797.0
206.6092,677.0
206.6818,773.0
206.7544,696.0
206.827,786.0
206.8996,680.0
206.9721,730.0
207.0447,720.0
207.1173,730.0
207.1899,699.0
207.2625,772.0
207.335,727.0
207.4076,780.0
207.4802,723.0
207.5527,789.0
207.6253,662.0
207.6978,769.0
207.7704,720.0
207.843,761.0
207.9155,684.0
207.9881,801.0
208.0606,700.0
208.1331,780.0
208.2057,714.0
208.2782,758.0
208.3508,750.0
208.4233,784.0
208.4958,706.0
208.5684,801.0
208.6409,701.0
208.7134,781.0
208.7859,714.0
208.8584,771.0
208.931,698.0
209.0035,744.0
209.076,728.0
209.1485,809.0
209.221,633.0
209.2935,785.0
209.366,726.0
209.4385,800.0
209.511,718.0
209.5835,766.0
209.656,714.0
209.7285,751.0
209.801,724.0
209.8735,781.0
209.9459,717.0
210.0184,785.0
210.0909,631.0
210.1634,772.0
210.2358,710.0
210.3083,748.0
210.3808,680.0
210.4532,789.0
210.5257,704.0
210.5982,757.0
210.6706,700.0
210.7431,764.0
210.8155,730.0
210.888,774.0
210.9604,704.0
211.0329,790.0
211.1053,684.0
211.1777,739.0
211.2502,701.0
211.3226,746.0
211.3951,677.0
211.4675,736.0
211.5399,697.0
211.6123,758.0
211.6847,701.0
211.7572,774.0
211.8296,728.0
211.902,844.0
211.9744,651.0
212.0468,796.0
212.1192,679.0
212.1917,750.0
212.264,682.0
212.3364,743.0
212.4088,700.0
212.4812,777.0
212.5536,727.0
212.626,791.0
212.6984,681.0
212.7708,796.0
212.8432,700.0
212.9155,801.0
212.9879,677.0
213.0603,754.0
213.1326,744.0
213.205,772.0
213.2774,706.0
213.3498,756.0
213.4221,705.0
213.4945,782.0
213.5668,710.0
213.6392,731.0
213.7115,688.0
213.7839,810.0
213.8562,661.0
213.9286,767.0
214.0009,693.0
214.0732,764.0
214.1456,743.0
214.2179,772.0
214.2903,731.0
214.3626,776.0
214.4349,712.0
214.5072,787.0
214.5796,686.0
214.6519,781.0
214.7242,734.0
214.7965,802.0
214.8688,707.0
214.9411,747.0
215.0134,710.0
215.0857,799.0
215.158,709.0
215.2303,753.0
215.3026,765.0
215.3749,815.0
215.4472,705.0
215.5195,820.0
215.5918,732.0
215.6641,750.0
215.7363,747.0
215.8086,786.0
215.8809,740.0
215.9532,800.0
216.0254,659.0
216.0977,735.0
216.17,709.0
216.2422,798.0
216.3145,734.0
216.3867,827.0
216.459,713.0
216.5313,806.0
216.6035,723.0
216.6758,787.0
216.748,709.0
216.8202,776.0
216.8925,761.0
216.9647,789.0
217.037,731.0
217.1092,802.0
217.1814,716.0
217.2536,800.0
217.3259,712.0
217.3981,785.0
217.4703,701.0
217.5425,780.0
217.6147,738.0
217.687,824.0
217.7592,766.0
217.8314,882.0
217.9035,726.0
217.9758,801.0
218.048,736.0
218.1201,843.0
218.1924,743.0
218.2645,817.0
218.3367,708.0
218.4089,788.0
218.4811,721.0
218.5533,827.0
218.6255,712.0
218.6976,788.0
218.7698,730.0
218.842,804.0
218.9142,761.0
218.9863,802.0
219.0585,754.0
219.1306,787.0
219.2028,756.0
219.2749,806.0
219.3471,757.0
219.4193,791.0
219.4914,741.0
219.5636,824.0
219.6357,749.0
219.7078,834.0
219.78,745.0
219.8521,822.0
219.9242,784.0
219.9964,868.0
220.0685,783.0
220.1406,800.0
220.2128,775.0
220.2849,818.0
220.357,762.0
220.4291,803.0
220.5012,706.0
220.5733,839.0
220.6454,761.0
220.7175,837.0
220.7896,781.0
220.8617,859.0
220.9338,745.0
221.0059,824.0
221.078,788.0
221.1501,802.0
221.2222,813.0
221.2943,892.0
221.3663,698.0
221.4384,856.0
221.5105,713.0
221.5826,826.0
221.6546,762.0
221.7267,799.0
221.7988,780.0
221.8708,846.0
221.9429,749.0
222.015,819.0
222.087,795.0
222.1591,778.0
222.2311,761.0
222.3032,872.0
222.3752,757.0
222.4473,829.0
222.5193,723.0
222.5913,826.0
222.6634,744.0
222.7354,856.0
222.8074,762.0
222.8795,835.0
222.9515,747.0
223.0235,782.0
223.0955,746.0
223.1675,819.0
223.2395,761.0
223.3116,833.0
223.3836,741.0
223.4556,815.0
223.5276,773.0
223.5996,840.0
223.6716,770.0
223.7436,820.0
223.8156,749.0
223.8876,852.0
223.9595,768.0
224.0315,803.0
224.1035,776.0
224.1755,792.0
224.2475,762.0
224.3195,840.0
224.3914,787.0
224.4634,860.0
224.5354,768.0
224.6073,859.0
224.6793,766.0
224.7512,831.0
224.8232,736.0
224.8952,852.0
224.9671,701.0
225.0391,805.0
225.111,803.0
225.1829,838.0
225.2549,774.0
225.3268,838.0
225.3988,782.0
225.4707,897.0
225.5426,803.0
225.6146,857.0
225.6865,747.0
225.7584,851.0
225.8303,810.0
225.9022,823.0
225.9742,792.0
226.0461,825.0
226.118,767.0
226.1899,907.0
226.2618,813.0
226.3337,904.0
226.4056,868.0
226.4775,893.0
226.5494,841.0
226.6213,854.0
226.6932,776.0
226.7651,844.0
226.8369,800.0
226.9088,906.0
226.9807,787.0
227.0526,912.0
227.1245,774.0
227.1963,852.0
227.2682,789.0
227.3401,879.0
227.4119,784.0
227.4838,827.0
227.5556,836.0
227.6275,868.0
227.6993,807.0
227.7712,816.0
227.8431,815.0
227.9149,864.0
227.9867,796.0
228.0586,855.0
228.1304,810.0
228.2023,889.0
228.2741,830.0
228.3459,926.0
228.4177,797.0
228.4896,853.0
228.5614,816.0
228.6332,819.0
228.705,831.0
228.7768,900.0
228.8486,794.0
228.9205,910.0
228.9923,831.0
229.0641,941.0
229.1359,896.0
229.2077,995.0
229.2794,903.0
229.3513,1035.0
229.423,1092.0
229.4948,1324.0
229.5666,1467.0
229.6384,1647.0
229.7102,1589.0
229.782,1458.0
229.8537,1094.0
229.9255,999.0
229.9973,943.0
230.069,936.0
230.1408,801.0
230.2126,921.0
230.2843,777.0
230.3561,831.0
230.4278,758.0
230.4996,834.0
230.5713,768.0
230.6431,848.0
230.7148,765.0
230.7866,839.0
230.8583,765.0
230.93,840.0
231.0018,804.0
231.0735,868.0
231.1452,735.0
231.2169,888.0
231.2887,726.0
231.3604,858.0
231.4321,738.0
231.5038,813.0
231.5755,782.0
231.6472,845.0
231.7189,769.0
231.7906,817.0
231.8624,734.0
231.9341,845.0
232.0057,740.0
232.0774,828.0
232.1491,756.0
232.2208,833.0
232.2925,776.0
232.3642,848.0
232.4359,802.0
232.5075,842.0
232.5792,780.0
232.6509,858.0
232.7225,820.0
232.7942,851.0
232.8659,745.0
232.9375,818.0
233.0092,781.0
233.0809,876.0
233.1525,783.0
233.2242,824.0
233.2958,815.0
233.3675,848.0
233.4391,768.0
233.5107,851.0
233.5824,770.0
233.654,841.0
233.7256,778.0
233.7973,826.0
233.8689,771.0
233.9405,847.0
234.0121,800.0
234.0838,813.0
234.1554,767.0
234.227,839.0
234.2986,725.0
234.3702,832.0
234.4418,744.0
234.5134,853.0
234.585,769.0
234.6566,794.0
234.7282,714.0
234.7998,834.0
234.8714,744.0
234.943,852.0
235.0146,727.0
235.0862,839.0
235.1577,773.0
235.2293,786.0
235.3009,750.0
235.3725,803.0
235.444,785.0
235.5156,850.0
235.5872,725.0
235.6587,853.0
235.7303,775.0
235.8018,860.0
235.8734,763.0
235.9449,852.0
236.0165,760.0
236.088,847.0
236.1596,802.0
236.2311,805.0
236.3026,804.0
236.3742,868.0
236.4457,801.0
236.5172,813.0
236.5887,770.0
236.6603,844.0
236.7318,814.0
236.8033,858.0
236.8748,750.0
236.9464,845.0
237.0179,772.0
237.0894,815.0
237.1609,781.0
237.2324,827.0
237.3039,770.0
237.3754,854.0
237.4469,765.0
237.5184,900.0
237.5898,799.0
237.6613,855.0
237.7328,821.0
237.8043,862.0
237.8758,820.0
237.9472,865.0
238.0187,767.0
238.0902,886.0
238.1617,849.0
238.2331,874.0
238.3046,872.0
238.376,851.0
238.4475,805.0
238.519,848.0
238.5904,817.0
238.6618,862.0
238.7333,823.0
238.8047,860.0
238.8762,782.0
238.9476,856.0
239.0191,805.0
239.0905,861.0
239.1619,822.0
239.2334,905.0
239.3048,790.0
239.3762,882.0
239.4476,812.0
239.519,907.0
239.5904,814.0
239.6619,893.0
239.7333,827.0
239.8047,886.0
239.8761,837.0
239.9475,925.0
240.0189,764.0
240.0903,907.0
240.1617,777.0
240.233,868.0
240.3044,784.0
240.3758,886.0
240.4472,791.0
240.5186,908.0
240.59,766.0
240.6613,880.0
240.7327,821.0
240.8041,879.0
240.8754,816.0
240.9468,847.0
241.0181,810.0
241.0895,886.0
241.1609,835.0
241.2322,866.0
241.3036,787.0
241.3749,923.0
241.4462,795.0
241.5176,869.0
241.5889,781.0
241.6602,917.0
241.7316,791.0
241.8029,871.0
241.8743,772.0
241.9456,860.0
242.0169,788.0
242.0882,863.0
242.1595,875.0
242.2309,880.0
242.3022,814.0
242.3735,906.0
242.4448,819.0
242.5161,865.0
242.5874,826.0
242.6587,881.0
242.73,811.0
242.8013,875.0
242.8726,818.0
242.9438,863.0
243.0151,806.0
243.0864,857.0
243.1577,793.0
243.229,881.0
243.3002,785.0
243.3715,893.0
243.4428,830.0
243.5141,868.0
243.5853,804.0
243.6566,884.0
243.7278,732.0
243.7991,879.0
243.8703,818.0
243.9416,910.0
244.0128,792.0
244.0841,872.0
244.1553,787.0
244.2266,889.0
244.2978,789.0
244.369,910.0
244.4402,804.0
244.5115,879.0
244.5827,790.0
244.6539,860.0
244.7251,765.0
244.7964,884.0
244.8676,831.0
244.9388,935.0
245.01,796.0
245.0812,886.0
245.1524,830.0
245.2236,865.0
245.2948,839.0
245.366,892.0
245.4372,761.0
245.5084,885.0
245.5796,784.0
245.6507,849.0
245.7219,806.0
245.7931,858.0
245.8643,778.0
245.9355,798.0
246.0066,770.0
246.0778,873.0
246.149,767.0
246.2201,871.0
246.2913,781.0
246.3624,861.0
246.4336,764.0
246.5047,869.0
246.5759,739.0
246.647,842.0
246.7182,762.0
246.7893,822.0
246.8605,762.0
246.9316,865.0
247.0027,719.0
247.0739,861.0
247.145,767.0
247.2161,843.0
247.2872,816.0
247.3584,869.0
247.4295,840.0
247.5006,923.0
247.5717,847.0
247.6428,1008.0
247.7139,1066.0
247.785,1314.0
247.8561,1483.0
247.9272,1757.0
247.9983,1296.0
248.0694,1215.0
248.1405,1045.0
248.2116,1017.0
248.2827,900.0
248.3537,962.0
248.4248,835.0
248.4959,916.0
248.5669,802.0
248.638,876.0
248.7091,805.0
248.7802,911.0
248.8512,786.0
248.9223,893.0
248.9933,820.0
249.0644,836.0
249.1354,821.0
249.2065,879.0
249.2775,814.0
249.3486,870.0
249.4196,780.0
249.4906,856.0
249.5617,813.0
249.6327,835.0
249.7037,759.0
249.7747,898.0
249.8458,796.0
249.9168,856.0
249.9878,765.0
250.0588,875.0
250.1298,779.0
250.2009,880.0
250.2719,830.0
250.3429,870.0
250.4138,801.0
250.4849,887.0
250.5558,836.0
250.6268,885.0
250.6978,859.0
250.7688,996.0
250.8398,1001.0
250.9108,1100.0
250.9818,1060.0
251.0527,1133.0
251.1237,1040.0
251.1947,1216.0
251.2657,1052.0
251.3366,1036.0
251.4076,856.0
251.4785,904.0
251.5495,780.0
251.6205,868.0
251.6914,788.0
251.7623,890.0
251.8333,750.0
251.9042,870.0
251.9752,798.0
252.0461,866.0
252.1171,777.0
252.188,831.0
252.2589,767.0
252.3298,879.0
252.4008,791.0
252.4717,864.0
252.5426,771.0
252.6135,859.0
252.6844,739.0
252.7553,851.0
252.8262,762.0
252.8971,871.0
252.9681,795.0
253.039,927.0
253.1098,787.0
253.1808,919.0
253.2516,811.0
253.3225,841.0
253.3934,773.0
253.4643,825.0
253.5352,795.0
253.606,851.0
253.6769,808.0
253.7478,878.0
253.8187,826.0
253.8895,849.0
253.9604,735.0
254.0312,864.0
254.1021,755.0
254.173,839.0
254.2438,736.0
254.3147,871.0
254.3855,754.0
254.4563,791.0
254.5272,763.0
254.598,842.0
254.6689,783.0
254.7397,839.0
254.8105,747.0
254.8813,797.0
254.9522,781.0
255.023,845.0
255.0938,777.0
255.1646,881.0
255.2354,738.0
255.3062,862.0
255.3771,734.0
255.4479,854.0
255.5187,770.0
255.5894,861.0
255.6603,801.0
255.731,883.0
255.8018,799.0
255.8726,891.0
255.9434,770.0
256.0142,876.0
256.085,755.0
256.1558,843.0
256.2265,763.0
256.2973,831.0
256.3681,798.0
256.4388,893.0
256.5096,769.0
256.5804,865.0
256.6511,775.0
256.7219,883.0
256.7926,784.0
256.8634,856.0
256.9341,760.0
257.0049,875.0
257.0756,775.0
257.1463,820.0
257.2171,760.0
257.2878,886.0
257.3585,793.0
257.4292,873.0
257.5,778.0
257.5707,836.0
257.6414,747.0
257.7122,802.0
257.7828,748.0
257.8535,867.0
257.9243,790.0
257.995,901.0
258.0657,789.0
258.1364,832.0
258.2071,785.0
258.2777,849.0
258.3484,774.0
258.4191,848.0
258.4898,772.0
258.5605,836.0
258.6312,760.0
258.7018,851.0
258.7725,792.0
258.8432,790.0
258.9139,750.0
258.9845,818.0
259.0552,735.0
259.1259,842.0
259.1965,745.0
259.2672,819.0
259.3378,783.0
259.4085,843.0
259.4791,775.0
259.5497,774.0
259.6204,701.0
259.691,829.0
259.7617,739.0
259.8323,851.0
259.9029,721.0
259.9735,822.0
260.0442,738.0
260.1147,777.0
260.1854,755.0
260.256,852.0
260.3267,723.0
260.3972,869.0
260.4678,782.0
260.5384,849.0
260.6091,746.0
260.6796,883.0
260.7502,744.0
260.8208,827.0
260.8914,738.0
260.962,833.0
261.0326,747.0
261.1032,794.0
261.1737,785.0
261.2444,825.0
261.3149,782.0
261.3854,849.0
261.456,735.0
261.5266,870.0
261.5971,774.0
261.6677,887.0
261.7383,806.0
261.8088,885.0
261.8794,785.0
261.9499,837.0
262.0205,781.0
262.091,877.0
262.1615,752.0
262.2321,886.0
262.3026,830.0
262.3731,842.0
262.4437,742.0
262.5142,890.0
262.5847,771.0
262.6552,851.0
262.7257,763.0
262.7962,885.0
262.8668,807.0
262.9373,867.0
263.0078,785.0
263.0783,867.0
263.1488,780.0
263.2193,843.0
263.2898,783.0
263.3603,876.0
263.4307,785.0
263.5012,880.0
263.5717,783.0
263.6422,919.0
263.7127,814.0
263.7831,884.0
263.8536,780.0
263.9241,857.0
263.9945,843.0
264.065,899.0
264.1354,810.0
264.2059,842.0
264.2764,770.0
264.3468,869.0
264.4173,763.0
264.4877,891.0
264.5581,735.0
264.6286,923.0
264.699,812.0
264.7694,861.0
264.8399,803.0
264.9103,843.0
264.9807,761.0
265.0511,852.0
265.1216,772.0
265.192,837.0
265.2625,749.0
265.3328,844.0
265.4032,740.0
265.4736,824.0
265.5441,772.0
265.6144,852.0
265.6848,764.0
265.7552,838.0
265.8256,762.0
265.896,820.0
265.9664,718.0
266.0368,850.0
266.1071,761.0
266.1775,839.0
266.2479,756.0
266.3183,781.0
266.3886,787.0
266.459,780.0
266.5294,779.0
266.5998,848.0
266.6701,748.0
266.7404,879.0
266.8108,758.0
266.8812,839.0
266.9515,734.0
267.0219,838.0
267.0922,747.0
267.1625,831.0
267.2328,787.0
267.3032,849.0
267.3735,749.0
267.4438,803.0
267.5142,763.0
267.5845,855.0
267.6548,790.0
267.7251,830.0
267.7954,725.0
267.8657,847.0
267.936,747.0
268.0063,843.0
268.0766,737.0
268.1469,812.0
268.2172,767.0
268.2875,795.0
268.3578,757.0
268.4281,840.0
268.4984,754.0
268.5686,819.0
268.6389,751.0
268.7092,782.0
268.7794,826.0
268.8498,809.0
268.92,737.0
268.9902,851.0
269.0605,769.0
269.1308,797.0
269.201,798.0
269.2713,806.0
269.3415,745.0
269.4118,838.0
269.482,754.0
269.5523,865.0
269.6225,725.0
269.6927,812.0
269.7629,759.0
269.8332,837.0
269.9034,746.0
269.9736,840.0
270.0439,734.0
270.114,829.0
270.1843,756.0
270.2545,787.0
270.3247,802.0
270.3949,809.0
270.4651,752.0
270.5353,830.0
270.6055,727.0
270.6757,815.0
270.7459,798.0
270.8161,864.0
270.8863,767.0
270.9564,835.0
271.0266,771.0
271.0968,831.0
271.167,744.0
271.2371,821.0
271.3073,757.0
271.3775,851.0
271.4476,777.0
271.5178,868.0
271.588,800.0
271.6581,824.0
271.7282,779.0
271.7984,854.0
271.8685,756.0
271.9387,850.0
272.0088,780.0
272.0789,879.0
272.1491,809.0
272.2192,840.0
272.2893,775.0
272.3595,880.0
272.4296,759.0
272.4997,902.0
272.5698,756.0
272.64,871.0
272.7101,780.0
272.7802,853.0
272.8503,805.0
272.9204,888.0
272.9904,755.0
273.0605,902.0
273.1306,804.0
273.2007,890.0
273.2708,800.0
273.3409,869.0
273.411,835.0
273.481,842.0
273.5511,801.0
273.6212,904.0
273.6913,832.0
273.7614,883.0
273.8314,783.0
273.9015,890.0
273.9715,776.0
274.0416,906.0
274.1116,791.0
274.1817,887.0
274.2517,785.0
274.3217,942.0
274.3918,817.0
274.4619,903.0
274.5319,789.0
274.602,892.0
274.6719,835.0
274.742,866.0
274.812,865.0
274.882,918.0
274.952,826.0
275.0221,933.0
275.0921,823.0
275.1621,908.0
275.2321,837.0
275.3021,889.0
275.3721,772.0
275.4421,833.0
275.5121,792.0
275.5821,950.0
275.6521,774.0
275.722,876.0
275.792,836.0
275.862,862.0
275.932,777.0
276.002,865.0
276.0719,820.0
276.1418,858.0
276.2119,815.0
276.2818,936.0
276.3517,846.0
276.4218,886.0
276.4917,815.0
276.5616,843.0
276.6316,802.0
276.7015,913.0
276.7715,799.0
276.8414,829.0
276.9113,751.0
276.9813,847.0
277.0512,774.0
277.1211,881.0
277.191,792.0
277.261,875.0
277.3309,785.0
277.4008,855.0
277.4707,814.0
277.5406,858.0
277.6105,777.0
277.6804,824.0
277.7503,817.0
277.8202,867.0
277.8901,795.0
277.96,874.0
278.0299,764.0
278.0998,858.0
278.1697,755.0
278.2396,861.0
278.3094,759.0
278.3793,872.0
278.4492,765.0
278.519,827.0
278.5889,788.0
278.6588,897.0
278.7286,784.0
278.7985,834.0
278.8683,783.0
278.9382,872.0
279.0081,810.0
279.0779,868.0
279.1477,789.0
279.2176,857.0
279.2874,776.0
279.3572,905.0
279.4271,800.0
279.4969,880.0
279.5667,824.0
279.6365,874.0
279.7063,790.0
279.7762,898.0
279.846,822.0
279.9158,900.0
279.9856,791.0
280.0554,851.0
280.1252,867.0
280.195,859.0
280.2648,788.0
280.3346,901.0
280.4044,833.0
280.4742,903.0
280.544,811.0
280.6137,916.0
280.6835,866.0
280.7533,896.0
280.8231,795.0
280.8928,867.0
280.9626,838.0
281.0323,887.0
281.1021,826.0
281.1719,877.0
281.2416,877.0
281.3114,917.0
281.3811,807.0
281.4509,909.0
281.5206,810.0
281.5904,866.0
281.6601,792.0
281.7299,919.0
281.7996,804.0
281.8693,909.0
281.939,833.0
282.0088,904.0
282.0784,805.0
282.1482,870.0
282.2179,786.0
282.2876,884.0
282.3573,848.0
282.427,906.0
282.4967,829.0
282.5664,875.0
282.6361,854.0
282.7058,936.0
282.7755,829.0
282.8452,908.0
282.9149,841.0
282.9845,907.0
283.0542,860.0
283.1239,878.0
283.1936,886.0
283.2632,934.0
283.3329,805.0
283.4026,978.0
283.4722,909.0
283.5419,955.0
283.6115,915.0
283.6812,1028.0
283.7508,945.0
283.8205,1002.0
283.8901,897.0
283.9597,951.0
284.0294,890.0
284.099,964.0
284.1686,891.0
284.2383,966.0
284.3079,865.0
284.3775,945.0
284.4471,854.0
284.5168,913.0
284.5864,807.0
284.656,920.0
284.7256,850.0
284.7952,929.0
284.8648,820.0
284.9344,907.0
285.004,844.0
285.0736,925.0
285.1432,842.0
285.2128,894.0
285.2823,813.0
285.3519,974.0
285.4215,814.0
285.4911,885.0
285.5606,831.0
285.6302,894.0
285.6998,775.0
285.7693,907.0
285.8389,810.0
285.9084,857.0
285.978,807.0
286.0475,847.0
286.1171,825.0
286.1866,897.0
286.2562,848.0
286.3257,873.0
286.3952,819.0
286.4648,842.0
286.5343,794.0
286.6039,830.0
286.6733,770.0
286.7429,905.0
286.8124,799.0
286.8819,891.0
286.9514,803.0
287.0209,847.0
287.0904,798.0
287.1599,919.0
287.2294,885.0
287.299,891.0
287.3684,803.0
287.4379,889.0
287.5074,791.0
287.5769,890.0
287.6464,831.0
287.7159,873.0
287.7853,784.0
287.8548,875.0
287.9243,829.0
287.9937,873.0
288.0632,852.0
288.1327,918.0
288.2021,767.0
288.2716,828.0
288.341,830.0
288.4105,902.0
288.4799,801.0
288.5493,903.0
288.6188,782.0
288.6882,871.0
288.7577,825.0
288.8271,874.0
288.8965,775.0
288.9659,931.0
289.0354,791.0
289.1048,866.0
289.1742,801.0
289.2436,889.0
289.313,825.0
289.3824,907.0
289.4518,839.0
289.5212,910.0
289.5906,748.0
289.66,896.0
289.7294,797.0
289.7988,903.0
289.8682,835.0
289.9376,882.0
290.007,830.0
290.0764,914.0
290.1457,795.0
290.2151,881.0
290.2844,765.0
290.3538,943.0
290.4232,815.0
290.4925,869.0
290.5619,778.0
290.6312,870.0
290.7006,817.0
290.7699,913.0
290.8393,772.0
290.9086,885.0
290.978,857.0
291.0473,900.0
291.1166,816.0
291.1859,920.0
291.2553,844.0
291.3246,936.0
291.3939,852.0
291.4632,932.0
291.5325,834.0
291.6018,934.0
291.6712,822.0
291.7405,960.0
291.8098,816.0
291.8791,931.0
291.9484,837.0
292.0176,927.0
292.0869,826.0
292.1562,874.0
292.2255,863.0
292.2948,956.0
292.3641,825.0
292.4334,923.0
292.5026,811.0
292.5719,939.0
292.6412,810.0
292.7104,902.0
292.7797,843.0
292.8489,943.0
292.9182,803.0
292.9875,887.0
293.0567,789.0
293.1259,897.0
293.1952,845.0
293.2644,877.0
293.3336,821.0
293.4029,870.0
293.4721,862.0
293.5413,928.0
293.6106,846.0
293.6798,944.0
293.749,815.0
293.8182,941.0
293.8875,828.0
293.9566,915.0
294.0259,840.0
294.0951,933.0
294.1642,822.0
294.2334,946.0
294.3026,847.0
294.3718,922.0
294.441,834.0
294.5102,923.0
294.5794,837.0
294.6485,933.0
294.7177,833.0
294.7869,907.0
294.8561,815.0
294.9253,936.0
294.9944,788.0
295.0636,910.0
295.1327,859.0
295.2019,921.0
295.271,808.0
295.3402,872.0
295.4093,835.0
295.4785,915.0
295.5476,862.0
295.6168,922.0
295.6859,834.0
295.755,885.0
295.8241,853.0
295.8932,919.0
295.9623,851.0
296.0315,927.0
296.1006,836.0
296.1697,912.0
296.2388,877.0
296.3079,909.0
296.377,929.0
296.4461,930.0
296.5152,848.0
296.5843,918.0
296.6534,796.0
296.7225,926.0
296.7916,853.0
296.8606,932.0
296.9297,825.0
296.9988,912.0
297.0679,857.0
297.137,866.0
297.206,806.0
297.2751,896.0
297.3441,864.0
297.4132,906.0
297.4823,849.0
297.5513,913.0
297.6204,852.0
297.6894,912.0
297.7584,845.0
297.8275,938.0
297.8965,802.0
297.9655,928.0
298.0346,822.0
298.1036,888.0
298.1726,845.0
298.2417,921.0
298.3106,864.0
298.3797,915.0
298.4487,876.0
298.5177,930.0
298.5867,862.0
298.6557,952.0
298.7247,889.0
298.7937,950.0
298.8627,853.0
298.9317,923.0
299.0007,810.0
299.0696,858.0
299.1386,813.0
299.2076,942.0
299.2766,879.0
299.3456,941.0
299.4145,857.0
299.4835,890.0
299.5524,839.0
299.6214,933.0
299.6903,802.0
299.7593,924.0
299.8282,859.0
299.8972,893.0
299.9661,870.0
300.0351,985.0
300.104,814.0
300.173,943.0
300.2419,836.0
300.3108,919.0
300.3797,842.0
300.4487,989.0
300.5176,847.0
300.5865,932.0
300.6554,905.0
300.7243,915.0
300.7932,886.0
300.8621,931.0
300.931,864.0
300.9999,978.0
301.0688,845.0
301.1377,947.0
301.2066,887.0
301.2755,936.0
301.3444,817.0
301.4132,884.0
301.4821,849.0
301.551,937.0
301.6199,876.0
301.6887,946.0
301.7576,830.0
301.8265,966.0
301.8953,846.0
301.9642,898.0
302.033,827.0
302.1019,913.0
302.1707,819.0
302.2396,959.0
302.3084,841.0
302.3772,909.0
302.4461,860.0
302.5149,935.0
302.5837,853.0
302.6526,932.0
302.7214,846.0
302.7902,942.0
302.859,865.0
302.9278,928.0
302.9966,882.0
303.0654,991.0
303.1342,815.0
303.203,936.0
303.2718,844.0
303.3406,961.0
303.4094,859.0
303.4781,907.0
303.547,882.0
303.6158,932.0
303.6845,846.0
303.7533,951.0
303.8221,867.0
303.8908,993.0
303.9596,840.0
304.0284,953.0
304.0971,895.0
304.1659,959.0
304.2346,862.0
304.3034,932.0
304.3721,838.0
304.4409,933.0
304.5096,847.0
304.5784,937.0
304.6471,884.0
304.7158,941.0
304.7845,828.0
304.8533,901.0
304.922,868.0
304.9907,944.0
305.0594,892.0
305.1281,968.0
305.1969,874.0
305.2656,890.0
305.3343,864.0
305.403,940.0
305.4717,868.0
305.5403,917.0
305.609,853.0
305.6778,928.0
305.7464,864.0
305.8151,952.0
305.8838,794.0
305.9525,924.0
306.0211,844.0
306.0898,920.0
306.1585,814.0
306.2271,941.0
306.2958,874.0
306.3645,958.0
306.4331,830.0
306.5017,879.0
306.5704,834.0
306.6391,967.0
306.7077,809.0
306.7763,913.0
306.845,843.0
306.9136,913.0
306.9822,841.0
307.0508,938.0
307.1195,858.0
307.1881,887.0
307.2567,862.0
307.3253,926.0
307.3939,845.0
307.4625,923.0
307.5312,827.0
307.5998,949.0
307.6684,853.0
307.7369,898.0
307.8055,817.0
307.8741,931.0
307.9427,864.0
308.0113,934.0
308.0799,795.0
308.1484,882.0
308.217,805.0
308.2856,896.0
308.3542,807.0
308.4227,923.0
308.4913,847.0
308.5598,930.0
308.6284,856.0
308.6969,909.0
308.7655,843.0
308.834,951.0
308.9026,821.0
308.9711,902.0
309.0396,790.0
309.1082,903.0
309.1767,801.0
309.2452,910.0
309.3138,831.0
309.3823,921.0
309.4508,853.0
309.5193,884.0
309.5878,807.0
309.6563,897.0
309.7249,820.0
309.7933,932.0
309.8618,870.0
309.9303,929.0
309.9988,856.0
310.0673,962.0
310.1358,832.0
310.2043,917.0
310.2728,842.0
310.3412,880.0
310.4097,799.0
310.4781,874.0
310.5466,846.0
310.6151,901.0
310.6836,864.0
310.752,895.0
310.8205,819.0
310.8889,915.0
310.9574,832.0
311.0258,912.0
311.0943,817.0
311.1627,919.0
311.2311,755.0
311.2996,908.0
311.368,836.0
311.4364,878.0
311.5049,855.0
311.5733,927.0
311.6417,806.0
311.7101,902.0
311.7785,867.0
311.8469,879.0
311.9153,841.0
311.9837,911.0
312.0521,825.0
312.1205,901.0
312.1889,793.0
312.2573,894.0
312.3257,781.0
312.3941,900.0
312.4624,856.0
312.5308,848.0
312.5992,801.0
312.6675,872.0
312.7359,768.0
312.8043,886.0
312.8727,816.0
312.941,882.0
313.0093,776.0
313.0777,864.0
313.1461,819.0
313.2144,894.0
313.2827,787.0
313.3511,866.0
313.4194,788.0
313.4877,875.0
313.5561,761.0
313.6244,891.0
313.6927,789.0
313.761,884.0
313.8294,739.0
313.8977,854.0
313.966,765.0
314.0343,878.0
314.1026,802.0
314.1709,919.0
314.2392,799.0
314.3075,856.0
314.3758,831.0
314.4441,873.0
314.5124,785.0
314.5806,935.0
314.6489,798.0
314.7172,929.0
314.7855,808.0
314.8537,886.0
314.922,753.0
314.9903,915.0
315.0585,808.0
315.1268,912.0
315.195,809.0
315.2633,890.0
315.3315,899.0
315.3998,884.0
315.468,838.0
315.5362,906.0
315.6045,803.0
315.6727,893.0
315.7409,814.0
315.8092,917.0
315.8774,831.0
315.9456,909.0
316.0138,858.0
316.082,939.0
316.1502,816.0
316.2184,915.0
316.2867,828.0
316.3549,911.0
316.423,839.0
316.4912,968.0
316.5594,861.0
316.6276,942.0
316.6958,821.0
316.764,933.0
316.8322,856.0
316.9003,918.0
316.9685,799.0
317.0367,914.0
317.1049,872.0
317.173,956.0
317.2411,923.0
317.3093,949.0
317.3774,841.0
317.4456,916.0
317.5137,860.0
317.5819,935.0
317.65,834.0
317.7182,954.0
317.7863,848.0
317.8545,972.0
317.9225,851.0
317.9907,931.0
318.0588,813.0
318.1269,974.0
318.195,882.0
318.2631,955.0
318.3312,821.0
318.3994,912.0
318.4675,853.0
318.5355,941.0
318.6036,841.0
318.6717,964.0
318.7398,850.0
318.8079,922.0
318.876,858.0
318.9441,888.0
319.0121,882.0
319.0802,925.0
319.1483,897.0
319.2164,909.0
319.2844,836.0
319.3525,945.0
319.4205,814.0
319.4886,972.0
319.5566,870.0
319.6247,962.0
319.6927,866.0
319.7608,945.0
319.8288,900.0
319.8968,969.0
319.9648,865.0
320.0329,967.0
320.1009,842.0
320.1689,918.0
320.237,864.0
320.305,920.0
320.373,853.0
320.441,925.0
320.509,847.0
320.577,968.0
320.645,870.0
320.713,976.0
320.781,870.0
320.849,899.0
320.917,820.0
320.985,947.0
321.0529,900.0
321.1209,963.0
321.1889,861.0
321.2568,920.0
321.3248,905.0
321.3928,936.0
321.4608,867.0
321.5287,920.0
321.5966,840.0
321.6646,916.0
321.7325,844.0
321.8005,933.0
321.8684,864.0
321.9364,954.0
322.0043,860.0
322.0722,934.0
322.1401,848.0
322.2081,980.0
322.276,901.0
322.344,914.0
322.4119,887.0
322.4797,910.0
322.5477,852.0
322.6156,940.0
322.6835,857.0
322.7514,955.0
322.8193,857.0
322.8871,930.0
322.955,892.0
323.0229,970.0
323.0908,863.0
323.1588,920.0
323.2266,871.0
323.2945,930.0
323.3623,835.0
323.4302,985.0
323.4981,842.0
323.5659,941.0
323.6338,873.0
323.7016,907.0
323.7695,828.0
323.8373,965.0
323.9052,876.0
323.973,976.0
324.0409,837.0
324.1087,944.0
324.1765,872.0
324.2444,984.0
324.3122,878.0
324.38,960.0
324.4479,848.0
324.5157,980.0
324.5834,886.0
324.6512,963.0
324.7191,898.0
324.7869,926.0
324.8547,888.0
324.9225,949.0
324.9903,931.0
325.058,1005.0
325.1259,899.0
325.1936,982.0
325.2614,854.0
325.3292,915.0
325.397,932.0
325.4647,923.0
325.5325,871.0
325.6002,919.0
325.668,899.0
325.7358,978.0
325.8036,885.0
325.8713,951.0
325.939,879.0
326.0068,957.0
326.0745,857.0
326.1422,936.0
326.21,893.0
326.2777,963.0
326.3455,824.0
326.4132,960.0
326.4809,890.0
326.5486,998.0
326.6164,857.0
326.6841,934.0
326.7518,844.0
326.8195,955.0
326.8872,861.0
326.9549,986.0
327.0226,835.0
327.0903,928.0
327.158,839.0
327.2256,950.0
327.2933,921.0
327.361,967.0
327.4287,826.0
327.4964,963.0
327.5641,889.0
327.6317,1020.0
327.6994,867.0
327.767,981.0
327.8347,879.0
327.9023,998.0
327.97,922.0
328.0376,1001.0
328.1053,866.0
328.1729,959.0
328.2406,889.0
328.3082,941.0
328.3759,868.0
328.4435,913.0
328.5111,883.0
328.5787,914.0
328.6463,874.0
328.7139,938.0
328.7816,830.0
328.8492,943.0
328.9168,823.0
328.9843,901.0
329.052,857.0
329.1196,917.0
329.1872,799.0
329.2548,939.0
329.3224,828.0
329.3899,926.0
329.4575,808.0
329.5251,941.0
329.5927,863.0
329.6602,954.0
329.7278,899.0
329.7953,916.0
329.8629,816.0
329.9305,943.0
329.998,813.0
330.0656,949.0
330.1331,844.0
330.2007,934.0
330.2682,811.0
330.3358,902.0
330.4033,834.0
330.4708,900.0
330.5383,825.0
330.6059,917.0
330.6734,845.0
330.7409,857.0
330.8084,822.0
330.876,958.0
330.9435,896.0
331.011,922.0
331.0784,802.0
331.1459,881.0
331.2134,857.0
331.2809,884.0
331.3484,805.0
331.4159,911.0
331.4834,806.0
331.5508,902.0
331.6183,784.0
331.6858,920.0
331.7533,821.0
331.8207,881.0
331.8882,831.0
331.9557,944.0
332.0231,808.0
332.0906,912.0
332.1581,830.0
332.2255,895.0
332.2929,836.0
332.3604,952.0
332.4278,850.0
332.4952,875.0
332.5627,771.0
332.6301,886.0
332.6975,828.0
332.7649,893.0
332.8323,815.0
332.8997,957.0
332.9672,821.0
333.0346,912.0
333.102,848.0
333.1694,937.0
333.2368,864.0
333.3042,930.0
333.3716,808.0
333.439,934.0
333.5063,814.0
333.5737,948.0
333.6411,865.0
333.7085,908.0
333.7758,803.0
333.8432,929.0
333.9106,830.0
333.9779,892.0
334.0453,816.0
334.1126,947.0
334.18,876.0
334.2473,905.0
334.3147,846.0
334.382,938.0
334.4494,859.0
334.5167,912.0
334.584,854.0
334.6514,943.0
334.7187,835.0
334.786,953.0
334.8533,858.0
334.9206,889.0
334.9879,755.0
335.0553,915.0
335.1226,800.0
335.1899,893.0
335.2572,880.0
335.3245,919.0
335.3918,849.0
335.459,944.0
335.5263,838.0
335.5936,906.0
335.6609,843.0
335.7282,938.0
335.7954,834.0
335.8627,985.0
335.93,849.0
335.9973,897.0
336.0645,815.0
336.1318,931.0
336.199,844.0
336.2662,924.0
336.3335,830.0
336.4008,909.0
336.468,777.0
336.5352,926.0
336.6024,830.0
336.6697,921.0
336.7369,828.0
336.8041,920.0
336.8714,783.0
336.9386,919.0
337.0058,822.0
337.073,900.0
337.1402,828.0
337.2074,879.0
337.2746,863.0
337.3418,893.0
337.409,832.0
337.4762,848.0
337.5434,869.0
337.6106,917.0
337.6777,774.0
337.7449,940.0
337.8121,838.0
337.8792,858.0
337.9464,866.0
338.0135,895.0
338.0807,772.0
338.1479,939.0
338.2151,821.0
338.2822,901.0
338.3493,825.0
338.4165,864.0
338.4836,817.0
338.5508,904.0
338.6179,816.0
338.6851,898.0
338.7521,820.0
338.8193,918.0
338.8864,784.0
338.9535,884.0
339.0206,815.0
339.0878,874.0
339.1548,821.0
339.222,906.0
339.289,856.0
339.3561,967.0
339.4233,761.0
339.4904,922.0
339.5574,797.0
339.6245,882.0
339.6916,813.0
339.7587,930.0
339.8257,829.0
339.8929,878.0
339.9599,827.0
340.0269,886.0
340.094,823.0
340.1611,900.0
340.2281,735.0
340.2952,889.0
340.3622,801.0
340.4293,871.0
340.4963,802.0
340.5633,869.0
340.6304,830.0
340.6974,870.0
340.7645,789.0
340.8315,881.0
340.8985,796.0
340.9655,857.0
341.0325,785.0
341.0995,900.0
341.1665,852.0
341.2335,888.0
341.3005,836.0
341.3675,896.0
341.4345,750.0
341.5015,844.0
341.5685,814.0
341.6355,920.0
341.7025,834.0
341.7694,877.0
341.8364,806.0
341.9034,939.0
341.9704,812.0
342.0373,923.0
342.1043,786.0
342.1712,915.0
342.2382,795.0
342.3051,912.0
342.3721,813.0
342.4391,923.0
342.506,871.0
342.5729,899.0
342.6398,818.0
342.7068,894.0
342.7737,807.0
342.8406,867.0
342.9076,841.0
342.9745,871.0
343.0414,853.0
343.1083,877.0
343.1752,809.0
343.2421,872.0
343.309,813.0
343.3759,914.0
343.4428,842.0
343.5097,926.0
343.5766,838.0
343.6434,852.0
343.7104,819.0
343.7772,877.0
343.8441,833.0
343.9109,887.0
343.9778,828.0
344.0447,929.0
344.1116,842.0
344.1784,882.0
344.2453,811.0
344.3121,950.0
344.3789,792.0
344.4458,935.0
344.5127,825.0
344.5795,951.0
344.6463,813.0
344.7131,930.0
344.78,811.0
344.8468,920.0
344.9136,797.0
344.9805,972.0
345.0473,855.0
345.1141,921.0
345.1809,786.0
345.2477,928.0
345.3145,878.0
345.3813,887.0
345.4481,854.0
345.5149,927.0
345.5816,822.0
345.6484,909.0
345.7152,849.0
345.782,943.0
345.8488,845.0
345.9155,903.0
345.9823,832.0
346.049,908.0
346.1158,845.0
346.1826,940.0
346.2493,883.0
346.3161,918.0
346.3828,868.0
346.4496,932.0
346.5163,840.0
346.5831,871.0
346.6498,869.0
346.7165,904.0
346.7832,812.0
346.85,878.0
346.9167,821.0
346.9834,922.0
347.0501,774.0
347.1168,876.0
347.1835,853.0
347.2502,914.0
347.3169,823.0
347.3836,921.0
347.4503,848.0
347.517,898.0
347.5837,833.0
347.6504,935.0
347.717,832.0
347.7837,960.0
347.8504,835.0
347.9171,888.0
347.9837,861.0
348.0504,948.0
348.1171,842.0
348.1837,903.0
348.2504,856.0
348.317,936.0
348.3837,838.0
348.4503,953.0
348.5169,791.0
348.5836,934.0
348.6502,856.0
348.7169,919.0
348.7835,876.0
348.8501,923.0
348.9167,869.0
348.9833,946.0
349.0499,819.0
349.1165,948.0
349.1832,825.0
349.2498,938.0
349.3163,831.0
349.3829,911.0
349.4495,810.0
349.5161,904.0
349.5827,857.0
349.6493,937.0
349.7159,783.0
349.7824,953.0
349.849,886.0
349.9156,946.0
349.9821,836.0
350.0487,915.0
350.1153,874.0
350.1818,895.0
350.2484,829.0
350.3149,924.0
350.3814,821.0
350.448,937.0
350.5146,815.0
350.5811,926.0
350.6476,864.0
350.7141,910.0
350.7807,888.0
350.8472,997.0
350.9137,799.0
350.9802,936.0
351.0467,873.0
351.1132,884.0
351.1797,844.0
351.2462,911.0
351.3127,824.0
351.3792,950.0
351.4457,822.0
351.5122,894.0
351.5787,871.0
351.6451,872.0
351.7116,873.0
351.7781,957.0
351.8446,849.0
351.911,951.0
351.9775,812.0
352.044,912.0
352.1104,862.0
352.1769,974.0
352.2433,869.0
352.3098,934.0
352.3762,858.0
352.4427,955.0
352.5091,823.0
352.5755,912.0
352.642,843.0
352.7084,973.0
352.7748,891.0
352.8412,953.0
352.9077,850.0
352.9741,969.0
353.0405,878.0
353.1068,977.0
353.1732,864.0
353.2396,1001.0
353.306,882.0
353.3724,921.0
353.4388,878.0
353.5052,938.0
353.5716,862.0
353.638,953.0
353.7043,894.0
353.7707,963.0
353.8371,863.0
353.9034,981.0
353.9698,894.0
354.0362,909.0
354.1025,919.0
354.1689,965.0
354.2352,868.0
354.3016,953.0
354.3679,908.0
354.4342,993.0
354.5005,904.0
354.5669,984.0
354.6332,878.0
354.6996,1004.0
354.7659,872.0
354.8322,950.0
354.8985,888.0
354.9648,959.0
355.0311,864.0
355.0974,988.0
355.1637,875.0
355.23,930.0
355.2963,857.0
355.3625,920.0
355.4289,822.0
355.4952,977.0
355.5614,853.0
355.6277,1000.0
355.694,886.0
355.7603,941.0
355.8265,886.0
355.8928,934.0
355.959,858.0
356.0253,943.0
356.0916,828.0
356.1578,951.0
356.224,863.0
356.2903,939.0
356.3565,851.0
356.4228,968.0
356.489,853.0
356.5552,939.0
356.6214,835.0
356.6876,909.0
356.7539,854.0
356.8201,908.0
356.8863,843.0
356.9525,911.0
357.0187,814.0
357.0849,953.0
357.1511,840.0
357.2173,935.0
357.2835,849.0
357.3497,919.0
357.4158,872.0
357.482,898.0
357.5482,813.0
357.6144,914.0
357.6805,879.0
357.7467,936.0
357.8128,879.0
357.879,952.0
357.9452,829.0
358.0114,955.0
358.0775,900.0
358.1436,987.0
358.2097,926.0
358.2759,1016.0
358.342,917.0
358.4082,1018.0
358.4743,953.0
358.5404,1053.0
358.6065,896.0
358.6726,918.0
358.7387,867.0
358.8049,960.0
358.871,880.0
358.9371,964.0
359.0032,849.0
359.0693,957.0
359.1353,814.0
359.2014,882.0
359.2676,814.0
359.3336,904.0
359.3997,774.0
359.4658,907.0
359.5318,819.0
359.5979,913.0
359.664,786.0
359.7301,895.0
359.7961,817.0
359.8622,895.0
359.9282,802.0
359.9943,927.0
360.0603,797.0
360.1264,920.0
360.1924,821.0
360.2585,915.0
360.3244,853.0
360.3905,896.0
360.4565,798.0
360.5225,946.0
360.5885,861.0
360.6546,932.0
360.7206,828.0
360.7866,909.0
360.8526,815.0
360.9185,898.0
360.9846,860.0
361.0506,900.0
361.1165,834.0
361.1825,871.0
361.2485,827.0
361.3145,938.0
361.3805,874.0
361.4465,893.0
361.5124,789.0
361.5784,921.0
361.6443,821.0
361.7103,913.0
361.7762,854.0
361.8422,966.0
361.9082,814.0
361.9741,900.0
362.04,846.0
362.106,889.0
362.1719,813.0
362.2379,879.0
362.3038,856.0
362.3697,881.0
362.4356,822.0
362.5015,936.0
362.5675,843.0
362.6334,916.0
362.6993,824.0
362.7652,923.0
362.8311,838.0
362.8969,941.0
362.9629,828.0
363.0287,928.0
363.0947,839.0
363.1605,919.0
363.2264,800.0
363.2923,884.0
363.3582,856.0
363.424,909.0
363.4899,811.0
363.5557,912.0
363.6216,830.0
363.6874,894.0
363.7533,826.0
363.8191,875.0
363.885,858.0
363.9508,931.0
364.0167,805.0
364.0825,897.0
364.1483,831.0
364.2142,959.0
364.28,845.0
364.3458,962.0
364.4116,816.0
364.4774,889.0
364.5432,833.0
364.609,880.0
364.6748,795.0
364.7406,940.0
364.8065,820.0
364.8722,946.0
364.938,808.0
365.0038,931.0
365.0696,860.0
365.1354,922.0
365.2011,833.0
365.2669,922.0
365.3326,827.0
365.3984,874.0
365.4642,841.0
365.5299,932.0
365.5957,855.0
365.6614,881.0
365.7272,807.0
365.7929,942.0
365.8587,816.0
365.9244,923.0
365.9902,868.0
366.0559,927.0
366.1216,821.0
366.1873,934.0
366.253,819.0
366.3188,914.0
366.3845,827.0
366.4502,892.0
366.5159,821.0
366.5816,949.0
366.6473,821.0
366.713,861.0
366.7787,794.0
366.8444,916.0
366.91,844.0
366.9757,940.0
367.0414,810.0
367.1071,911.0
367.1727,828.0
367.2384,906.0
367.3041,830.0
367.3697,911.0
367.4354,841.0
367.501,896.0
367.5667,797.0
367.6323,913.0
367.698,831.0
367.7636,868.0
367.8292,818.0
367.8948,880.0
367.9605,764.0
368.0261,877.0
368.0918,786.0
368.1573,895.0
368.223,760.0
368.2885,906.0
368.3542,790.0
368.4198,797.0
368.4854,777.0
368.551,868.0
368.6165,743.0
368.6821,875.0
368.7477,762.0
368.8133,836.0
368.8789,816.0
368.9445,881.0
369.01,789.0
369.0756,863.0
369.1411,868.0
369.2067,866.0
369.2723,780.0
369.3379,908.0
369.4034,751.0
369.4689,848.0
369.5345,749.0
369.6,808.0
369.6656,794.0
369.7311,855.0
369.7966,802.0
369.8622,870.0
369.9277,776.0
369.9932,889.0
370.0587,773.0
370.1242,841.0
370.1897,761.0
370.2552,844.0
370.3207,760.0
370.3862,844.0
370.4517,746.0
370.5172,864.0
370.5827,814.0
370.6482,884.0
370.7136,800.0
370.7791,851.0
370.8446,798.0
370.9101,879.0
370.9756,766.0
371.041,844.0
371.1064,805.0
371.1719,837.0
371.2373,785.0
371.3028,859.0
371.3683,776.0
371.4337,876.0
371.4991,824.0
371.5646,870.0
371.63,815.0
371.6954,902.0
371.7608,774.0
371.8263,886.0
371.8917,817.0
371.9571,847.0
372.0225,785.0
372.0879,913.0
372.1533,763.0
372.2187,902.0
372.2841,801.0
372.3495,888.0
372.4149,846.0
372.4803,897.0
372.5457,785.0
372.611,940.0
372.6764,818.0
372.7418,865.0
372.8071,806.0
372.8725,934.0
372.9379,836.0
373.0032,905.0
373.0686,812.0
373.1339,933.0
373.1992,787.0
373.2646,934.0
373.3299,820.0
373.3953,910.0
373.4606,820.0
373.5259,919.0
373.5912,791.0
373.6566,864.0
373.7219,819.0
373.7872,856.0
373.8525,803.0
373.9178,891.0
373.9831,854.0
374.0484,905.0
374.1137,828.0
374.179,843.0
374.2443,813.0
374.3096,971.0
374.3749,834.0
374.4401,924.0
374.5054,789.0
374.5706,894.0
374.636,829.0
374.7012,921.0
374.7665,874.0
374.8318,886.0
374.897,853.0
374.9622,920.0
375.0275,834.0
375.0927,871.0
375.158,843.0
375.2232,880.0
375.2885,776.0
375.3537,931.0
375.4189,857.0
375.4841,889.0
375.5493,808.0
375.6145,934.0
375.6797,847.0
375.745,924.0
375.8101,846.0
375.8754,902.0
375.9406,821.0
376.0057,911.0
376.071,822.0
376.1361,931.0
376.2013,839.0
376.2665,936.0
376.3317,811.0
376.3969,889.0
376.462,815.0
376.5272,961.0
376.5923,828.0
376.6575,941.0
376.7226,840.0
376.7878,895.0
376.8529,834.0
376.9181,946.0
376.9832,844.0
377.0483,872.0
377.1135,801.0
377.1786,907.0
377.2437,843.0
377.3089,874.0
377.374,818.0
377.4391,910.0
377.5042,843.0
377.5693,869.0
377.6344,783.0
377.6995,949.0
377.7646,867.0
377.8297,945.0
377.8948,908.0
377.9599,937.0
378.025,822.0
378.09,909.0
378.1551,862.0
378.2202,912.0
378.2852,840.0
378.3503,921.0
378.4154,828.0
378.4804,957.0
378.5455,860.0
378.6105,944.0
378.6755,892.0
378.7406,936.0
378.8057,886.0
378.8707,870.0
378.9357,886.0
379.0008,964.0
379.0658,826.0
379.1308,945.0
379.1958,881.0
379.2609,941.0
379.3259,822.0
379.3908,997.0
379.4558,900.0
379.5208,978.0
379.5858,880.0
379.6509,929.0
379.7159,914.0
379.7808,956.0
379.8458,843.0
379.9108,998.0
379.9758,874.0
380.0407,987.0
380.1057,918.0
380.1707,1003.0
380.2356,893.0
380.3006,1025.0
380.3655,937.0
380.4305,1005.0
380.4955,883.0
380.5604,952.0
380.6253,894.0
380.6902,1028.0
380.7552,932.0
380.8201,999.0
380.885,890.0
380.95,927.0
381.0149,934.0
381.0798,1030.0
381.1447,943.0
381.2096,1015.0
381.2745,949.0
381.3394,1007.0
381.4043,945.0
381.4692,1027.0
381.5341,999.0
381.5989,998.0
381.6638,961.0
381.7287,1036.0
381.7936,913.0
381.8585,1055.0
381.9233,993.0
381.9882,1026.0
382.053,988.0
382.1179,1032.0
382.1828,959.0
382.2476,1110.0
382.3124,949.0
382.3773,1052.0
382.4421,1034.0
382.507,1095.0
382.5718,983.0
382.6366,1030.0
382.7014,1000.0
382.7663,1067.0
382.8311,957.0
382.8959,1073.0
382.9607,1023.0
383.0255,1060.0
383.0903,1017.0
383.1551,1152.0
383.2199,1012.0
383.2847,1085.0
383.3495,978.0
383.4143,1108.0
383.479,972.0
383.5438,1082.0
383.6086,1006.0
383.6734,1085.0
383.7381,986.0
383.8029,1104.0
383.8676,1023.0
383.9324,1097.0
383.9972,1028.0
384.0619,1071.0
384.1266,1020.0
384.1914,1083.0
384.2562,1016.0
384.3209,1074.0
384.3856,1027.0
384.4503,1142.0
384.515,1039.0
384.5797,1148.0
384.6445,1107.0
384.7092,1191.0
384.7739,1117.0
384.8386,1247.0
384.9033,1142.0
384.968,1207.0
385.0327,1169.0
385.0974,1254.0
385.162,1147.0
385.2267,1233.0
385.2914,1169.0
385.3561,1312.0
385.4208,1191.0
385.4854,1207.0
385.5501,1086.0
385.6147,1188.0
385.6794,1112.0
385.7441,1213.0
385.8087,1187.0
385.8734,1257.0
385.938,1210.0
386.0027,1272.0
386.0673,1322.0
386.1319,1259.0
386.1966,1122.0
386.2612,1163.0
386.3258,1018.0
386.3904,1125.0
386.455,1097.0
386.5196,1155.0
386.5843,1111.0
386.6489,1231.0
386.7135,1220.0
386.778,1312.0
386.8426,1249.0
386.9072,1389.0
386.9718,1389.0
387.0364,1484.0
387.101,1352.0
387.1655,1168.0
387.2301,1056.0
387.2946,1070.0
387.3593,1040.0
387.4238,1112.0
387.4884,1020.0
387.5529,1134.0
387.6175,1049.0
387.682,1214.0
387.7466,1090.0
387.8111,1256.0
387.8756,1173.0
387.9402,1322.0
388.0047,1373.0
388.0692,1449.0
388.1337,1520.0
388.1982,1792.0
388.2628,1609.0
388.3272,1338.0
388.3918,990.0
388.4563,1062.0
388.5208,894.0
388.5852,962.0
388.6497,883.0
388.7142,937.0
388.7787,899.0
388.8432,939.0
388.9077,873.0
388.9721,949.0
389.0366,842.0
389.1011,957.0
389.1655,827.0
389.23,926.0
389.2944,896.0
389.3589,959.0
389.4233,862.0
389.4878,919.0
389.5522,849.0
389.6167,970.0
389.6811,867.0
389.7455,921.0
389.8099,829.0
389.8744,904.0
389.9388,867.0
390.0032,991.0
390.0676,890.0
390.132,924.0
390.1964,898.0
390.2608,943.0
390.3252,891.0
390.3896,897.0
390.454,850.0
390.5184,931.0
390.5827,829.0
390.6471,927.0
390.7115,878.0
390.7759,963.0
390.8402,867.0
390.9046,960.0
390.9689,889.0
391.0333,927.0
391.0977,859.0
391.162,1007.0
391.2264,836.0
391.2907,956.0
391.355,889.0
391.4193,965.0
391.4837,893.0
391.548,944.0
391.6123,910.0
391.6767,938.0
391.741,900.0
391.8053,972.0
391.8696,874.0
391.9339,959.0
391.9982,859.0
392.0625,1002.0
392.1268,930.0
392.1911,965.0
392.2553,871.0
392.3196,973.0
392.3839,897.0
392.4482,967.0
392.5125,912.0
392.5767,969.0
392.641,888.0
392.7053,952.0
392.7695,881.0
392.8338,1026.0
392.898,946.0
392.9622,986.0
393.0265,884.0
393.0908,992.0
393.155,923.0
393.2192,1001.0
393.2834,939.0
393.3477,1032.0
393.4118,900.0
393.476,967.0
393.5403,878.0
393.6045,985.0
393.6687,898.0
393.7329,928.0
393.7971,899.0
393.8613,979.0
393.9255,906.0
393.9897,995.0
394.0539,872.0
394.118,991.0
394.1822,855.0
394.2464,977.0
394.3105,881.0
394.3747,992.0
394.4389,897.0
394.503,961.0
394.5672,866.0
394.6313,954.0
394.6954,884.0
394.7596,948.0
394.8238,918.0
394.8879,943.0
394.952,889.0
395.0161,930.0
395.0803,866.0
395.1444,993.0
395.2085,853.0
395.2726,950.0
395.3367,937.0
395.4008,955.0
395.4649,828.0
395.529,942.0
395.5931,875.0
395.6572,950.0
395.7213,885.0
395.7854,904.0
395.8495,827.0
395.9135,935.0
395.9776,869.0
396.0417,952.0
396.1057,898.0
396.1698,893.0
396.2339,815.0
396.2979,988.0
396.362,862.0
396.426,935.0
396.4901,846.0
396.5541,935.0
396.6181,888.0
396.6821,907.0
396.7462,863.0
396.8102,965.0
396.8743,877.0
396.9383,944.0
397.0023,863.0
397.0662,885.0
397.1302,856.0
397.1943,948.0
397.2583,866.0
397.3223,845.0
397.3862,870.0
397.4502,940.0
397.5142,830.0
397.5782,887.0
397.6422,828.0
397.7061,905.0
397.7701,860.0
397.8341,923.0
397.898,853.0
397.962,954.0
398.0259,844.0
398.0899,906.0
398.1538,847.0
398.2178,962.0
398.2817,869.0
398.3456,912.0
398.4096,805.0
398.4735,935.0
398.5374,823.0
398.6013,944.0
398.6653,856.0
398.7292,906.0
398.7931,873.0
398.857,953.0
398.9209,848.0
398.9848,942.0
399.0487,867.0
399.1125,960.0
399.1765,840.0
399.2404,968.0
399.3042,851.0
399.3681,993.0
399.432,864.0
399.4958,988.0
399.5597,846.0
399.6236,969.0
399.6875,908.0
399.7513,944.0
399.8152,936.0
399.879,977.0
399.9428,808.0
400.0067,974.0
400.0705,896.0
400.1343,946.0
400.1982,870.0
400.262,982.0
400.3258,853.0
400.3896,968.0
400.4534,837.0
400.5172,967.0
400.581,857.0
400.6448,984.0
400.7086,852.0
400.7724,950.0
400.8362,887.0
400.9,932.0
400.9638,852.0
401.0276,946.0
401.0913,923.0
401.1551,981.0
401.2189,806.0
401.2826,962.0
401.3464,875.0
401.4102,977.0
401.4739,886.0
401.5376,981.0
401.6014,879.0
401.6651,949.0
401.7289,856.0
401.7926,953.0
401.8564,916.0
401.92,957.0
401.9838,934.0
402.0475,950.0
402.1112,876.0
402.175,1004.0
402.2386,872.0
402.3023,915.0
402.366,833.0
402.4297,1014.0
402.4934,892.0
402.5571,946.0
402.6208,947.0
402.6845,934.0
402.7482,897.0
402.8118,976.0
402.8755,891.0
402.9392,1029.0
403.0028,897.0
403.0665,1000.0
403.1301,914.0
403.1938,1001.0
403.2574,906.0
403.3211,974.0
403.3847,900.0
403.4484,917.0
403.512,890.0
403.5756,981.0
403.6393,937.0
403.7029,996.0
403.7665,918.0
403.8301,973.0
403.8937,904.0
403.9573,980.0
404.0209,910.0
404.0845,993.0
404.1481,900.0
404.2117,984.0
404.2753,902.0
404.3389,959.0
404.4024,922.0
404.466,944.0
404.5296,892.0
404.5932,955.0
404.6567,929.0
404.7203,987.0
404.7838,878.0
404.8474,980.0
404.9109,875.0
404.9745,946.0
405.0381,919.0
405.1016,993.0
405.1651,876.0
405.2286,979.0
405.2922,903.0
405.3557,957.0
405.4193,896.0
405.4828,954.0
405.5462,927.0
405.6097,933.0
405.6733,944.0
405.7368,1012.0
405.8003,941.0
405.8638,965.0
405.9272,904.0
405.9907,970.0
406.0542,938.0
406.1177,1048.0
406.1812,962.0
406.2446,966.0
406.3081,927.0
406.3716,1031.0
406.435,924.0
406.4985,973.0
406.562,893.0
406.6254,959.0
406.6888,921.0
406.7523,1006.0
406.8157,916.0
406.8791,1006.0
406.9426,897.0
407.006,990.0
407.0694,949.0
407.1328,1024.0
407.1962,947.0
407.2597,1002.0
407.3231,951.0
407.3865,1084.0
407.4499,968.0
407.5133,1011.0
407.5767,979.0
407.64,979.0
407.7034,956.0
407.7668,1014.0
407.8302,945.0
407.8936,1025.0
407.9569,977.0
408.0203,1040.0
408.0836,955.0
408.147,1016.0
408.2104,984.0
408.2737,1012.0
408.3371,976.0
408.4004,1057.0
408.4637,944.0
408.5271,1022.0
408.5905,986.0
408.6537,996.0
408.7171,928.0
408.7804,1028.0
408.8437,925.0
408.907,1015.0
408.9703,940.0
409.0336,1060.0
409.0969,1008.0
409.1602,966.0
409.2235,985.0
409.2868,1014.0
409.3501,976.0
409.4134,1006.0
409.4767,965.0
409.5399,1062.0
409.6032,943.0
409.6665,968.0
409.7297,935.0
409.793,1030.0
409.8563,939.0
409.9195,1017.0
409.9827,900.0
410.046,1043.0
410.1092,961.0
410.1725,1045.0
410.2357,950.0
410.299,1012.0
410.3622,931.0
410.4254,1022.0
410.4886,940.0
410.5518,1009.0
410.615,930.0
410.6782,1033.0
410.7414,977.0
410.8046,1004.0
410.8678,916.0
410.931,997.0
410.9942,882.0
411.0574,990.0
411.1205,914.0
411.1837,1006.0
411.2469,924.0
411.3101,1033.0
411.3733,941.0
411.4364,995.0
411.4995,915.0
411.5627,1022.0
411.6259,918.0
411.689,1002.0
411.7521,929.0
411.8153,1023.0
411.8784,959.0
411.9415,981.0
412.0046,895.0
412.0678,1026.0
412.1309,899.0
412.194,957.0
412.2571,914.0
412.3203,971.0
412.3833,925.0
412.4464,1009.0
412.5096,916.0
412.5727,955.0
412.6357,897.0
412.6988,1020.0
412.7619,952.0
412.825,944.0
412.8881,873.0
412.9511,956.0
413.0142,890.0
413.0772,942.0
413.1403,880.0
413.2033,938.0
413.2664,886.0
413.3294,983.0
413.3925,887.0
413.4555,930.0
413.5186,881.0
413.5816,945.0
413.6446,883.0
413.7076,967.0
413.7707,903.0
413.8337,940.0
413.8967,864.0
413.9597,985.0
414.0227,895.0
414.0857,983.0
414.1487,896.0
414.2117,942.0
414.2747,894.0
414.3376,971.0
414.4006,881.0
414.4636,988.0
414.5266,843.0
414.5896,975.0
414.6525,915.0
414.7155,972.0
414.7784,886.0
414.8414,971.0
414.9044,949.0
414.9673,997.0
415.0303,930.0
415.0932,1033.0
415.1561,929.0
415.2191,944.0
415.282,888.0
415.3449,1001.0
415.4079,900.0
415.4708,988.0
415.5336,926.0
415.5966,966.0
415.6595,934.0
415.7224,1024.0
415.7853,924.0
415.8482,973.0
415.9111,943.0
415.9739,941.0
416.0368,940.0
416.0997,984.0
416.1626,922.0
416.2255,975.0
416.2883,954.0
416.3512,1012.0
416.414,910.0
416.4769,1039.0
416.5397,907.0
416.6026,993.0
416.6654,942.0
416.7283,1003.0
416.7911,923.0
416.8539,963.0
416.9167,904.0
416.9796,989.0
417.0424,917.0
417.1052,1001.0
417.168,941.0
417.2308,1012.0
417.2936,904.0
417.3564,1002.0
417.4193,878.0
417.4821,940.0
417.5448,896.0
417.6076,996.0
417.6704,901.0
417.7332,1037.0
417.796,910.0
417.8587,978.0
417.9215,924.0
417.9842,1000.0
418.047,946.0
418.1098,975.0
418.1725,881.0
418.2353,966.0
418.298,828.0
418.3607,961.0
418.4235,865.0
418.4862,958.0
418.549,883.0
418.6117,1010.0
418.6744,870.0
418.7371,980.0
418.7998,909.0
418.8625,979.0
418.9252,877.0
418.9879,957.0
419.0507,854.0
419.1133,1006.0
419.176,861.0
419.2387,1048.0
419.3014,870.0
419.3641,993.0
419.4268,951.0
419.4894,1028.0
419.5521,946.0
419.6147,1031.0
419.6774,948.0
419.7401,911.0
419.8027,892.0
419.8654,957.0
419.928,853.0
419.9906,948.0
420.0533,919.0
420.1159,936.0
420.1785,892.0
420.2411,998.0
420.3038,838.0
420.3664,959.0
420.429,886.0
420.4916,944.0
420.5542,855.0
420.6168,957.0
420.6794,887.0
420.742,879.0
420.8046,892.0
420.8672,937.0
420.9297,884.0
420.9923,983.0
421.0549,899.0
421.1175,938.0
421.18,844.0
421.2426,958.0
421.3052,889.0
421.3677,947.0
421.4303,929.0
421.4928,958.0
421.5554,851.0
421.6179,942.0
421.6804,865.0
421.743,912.0
421.8055,911.0
421.868,937.0
421.9305,815.0
421.993,932.0
422.0556,856.0
422.1181,903.0
422.1806,806.0
422.2431,977.0
422.3055,836.0
422.368,940.0
422.4305,857.0
422.493,925.0
422.5555,816.0
422.618,938.0
422.6805,908.0
422.7429,916.0
422.8054,900.0
422.8679,924.0
422.9303,859.0
422.9928,948.0
423.0552,884.0
423.1177,976.0
423.1801,802.0
423.2425,991.0
423.305,896.0
423.3674,972.0
423.4298,938.0
423.4922,987.0
423.5547,901.0
423.617,958.0
423.6795,896.0
423.7419,941.0
423.8043,875.0
423.8667,954.0
423.9291,911.0
423.9915,980.0
424.0538,930.0
424.1163,987.0
424.1786,913.0
424.241,955.0
424.3034,916.0
424.3658,947.0
424.4281,935.0
424.4905,984.0
424.5529,885.0
424.6152,1028.0
424.6775,947.0
424.7399,1017.0
424.8022,962.0
424.8646,988.0
424.9269,938.0
424.9892,971.0
425.0515,944.0
425.1139,951.0
425.1762,966.0
425.2385,1021.0
425.3008,949.0
425.3631,972.0
425.4254,943.0
425.4877,1051.0
425.55,942.0
425.6123,1034.0
425.6746,988.0
425.7369,1097.0
425.7992,959.0
425.8614,1007.0
425.9237,977.0
425.9859,1040.0
426.0482,1012.0
426.1105,1031.0
426.1727,969.0
426.235,1068.0
426.2972,988.0
426.3595,1038.0
426.4217,955.0
426.4839,1094.0
426.5462,978.0
426.6084,1046.0
426.6706,969.0
426.7328,1057.0
426.795,1001.0
426.8573,997.0
426.9195,973.0
426.9817,1042.0
427.0439,948.0
427.1061,984.0
427.1683,962.0
427.2305,1032.0
427.2927,967.0
427.3549,1008.0
427.417,916.0
427.4792,1021.0
427.5413,982.0
427.6035,1035.0
427.6657,976.0
427.7278,1068.0
427.79,944.0
427.8521,1037.0
427.9142,943.0
427.9764,1054.0
428.0386,920.0
428.1007,956.0
428.1628,952.0
428.2249,1019.0
428.287,923.0
428.3492,1032.0
428.4113,926.0
428.4734,1042.0
428.5355,915.0
428.5976,999.0
428.6597,936.0
428.7218,1045.0
428.7839,915.0
428.846,973.0
428.9081,921.0
428.9702,976.0
429.0322,898.0
429.0943,985.0
429.1563,944.0
429.2184,958.0
429.2805,944.0
429.3425,973.0
429.4046,918.0
429.4666,932.0
429.5287,901.0
429.5908,960.0
429.6528,860.0
429.7148,963.0
429.7768,846.0
429.8388,926.0
429.9008,864.0
429.9629,930.0
430.0249,869.0
430.0869,945.0
430.1489,887.0
430.2109,978.0
430.2729,855.0
430.3349,952.0
430.3969,884.0
430.4589,927.0
430.5208,911.0
430.5828,939.0
430.6448,826.0
430.7068,914.0
430.7688,899.0
430.8307,915.0
430.8926,859.0
430.9546,953.0
431.0165,843.0
431.0785,933.0
431.1404,873.0
431.2024,941.0
431.2643,848.0
431.3262,983.0
431.3881,900.0
431.4501,878.0
431.512,842.0
431.5739,880.0
431.6358,805.0
431.6977,928.0
431.7596,829.0
431.8215,931.0
431.8834,776.0
431.9453,916.0
432.0072,886.0
432.0691,946.0
432.131,835.0
432.1928,894.0
432.2547,838.0
432.3165,909.0
432.3784,759.0
432.4403,861.0
432.5021,839.0
432.564,877.0
432.6258,798.0
432.6876,941.0
432.7495,826.0
432.8113,893.0
432.8732,790.0
432.935,867.0
432.9968,816.0
433.0586,909.0
433.1204,798.0
433.1823,885.0
433.2441,803.0
433.3059,966.0
433.3677,834.0
433.4295,837.0
433.4912,828.0
433.5531,919.0
433.6148,799.0
433.6766,885.0
433.7384,818.0
433.8001,928.0
433.8619,849.0
433.9237,925.0
433.9854,788.0
434.0472,921.0
434.1089,808.0
434.1707,876.0
434.2324,840.0
434.2942,934.0
434.3559,846.0
434.4177,948.0
434.4794,830.0
434.5411,922.0
434.6028,829.0
434.6645,871.0
434.7263,828.0
434.788,941.0
434.8497,845.0
434.9113,926.0
434.973,801.0
435.0347,902.0
435.0965,826.0
435.1581,900.0
435.2198,843.0
435.2815,888.0
435.3431,843.0
435.4048,863.0
435.4665,822.0
435.5282,919.0
435.5898,846.0
435.6515,921.0
435.7131,909.0
435.7747,959.0
435.8363,827.0
435.898,899.0
435.9597,830.0
436.0213,938.0
436.0829,873.0
436.1445,935.0
436.2061,853.0
436.2678,889.0
436.3294,851.0
436.391,964.0
436.4525,851.0
436.5141,882.0
436.5757,874.0
436.6373,897.0
436.6989,860.0
436.7605,943.0
436.8221,853.0
436.8836,923.0
436.9452,838.0
437.0067,936.0
437.0684,869.0
437.1299,930.0
437.1914,837.0
437.253,881.0
437.3145,826.0
437.3761,906.0
437.4376,817.0
437.4992,930.0
437.5607,820.0
437.6222,863.0
437.6837,807.0
437.7452,870.0
437.8067,837.0
437.8683,902.0
437.9298,885.0
437.9913,933.0
438.0528,797.0
438.1143,894.0
438.1757,799.0
438.2372,904.0
438.2987,830.0
438.3602,910.0
438.4217,845.0
438.4831,891.0
438.5446,826.0
438.6061,891.0
438.6675,835.0
438.729,884.0
438.7904,815.0
438.8519,891.0
438.9133,817.0
438.9747,881.0
439.0362,806.0
439.0976,877.0
439.159,801.0
439.2204,886.0
439.2819,780.0
439.3433,903.0
439.4047,792.0
439.4661,888.0
439.5275,785.0
439.5889,866.0
439.6503,863.0
439.7116,902.0
439.7731,842.0
439.8345,946.0
439.8958,771.0
439.9572,905.0
440.0186,847.0
440.0799,937.0
440.1413,839.0
440.2027,911.0
440.264,810.0
440.3253,901.0
440.3867,838.0
440.448,879.0
440.5093,851.0
440.5707,923.0
440.632,810.0
440.6934,897.0
440.7546,833.0
440.816,915.0
440.8773,789.0
440.9386,949.0
440.9999,852.0
441.0612,868.0
441.1225,815.0
441.1838,902.0
441.2451,818.0
441.3063,884.0
441.3677,846.0
441.429,917.0
441.4902,857.0
441.5515,927.0
441.6127,860.0
441.674,893.0
441.7353,850.0
441.7965,886.0
441.8578,793.0
441.919,914.0
441.9802,850.0
442.0414,953.0
442.1027,761.0
442.164,894.0
442.2252,843.0
442.2864,919.0
442.3476,844.0
442.4088,914.0
442.47,869.0
442.5312,921.0
442.5924,881.0
442.6536,924.0
442.7148,851.0
442.776,872.0
442.8372,854.0
442.8984,902.0
442.9596,834.0
443.0207,931.0
443.0819,798.0
443.143,889.0
443.2042,871.0
443.2653,895.0
443.3265,815.0
443.3877,847.0
443.4488,852.0
443.5099,919.0
443.5711,857.0
443.6322,901.0
443.6934,825.0
443.7545,910.0
443.8156,837.0
443.8767,950.0
443.9378,844.0
443.9989,898.0
444.0601,877.0
444.1212,966.0
444.1822,841.0
444.2433,922.0
444.3044,885.0
444.3654,926.0
444.4265,847.0
444.4877,916.0
444.5487,859.0
444.6098,946.0
444.6708,865.0
444.7319,903.0
444.7929,848.0
444.854,935.0
444.915,825.0
444.9761,926.0
445.0371,797.0
445.0981,884.0
445.1592,831.0
445.2203,880.0
445.2812,829.0
445.3423,896.0
445.4033,844.0
445.4643,949.0
445.5253,856.0
445.5862,924.0
445.6473,804.0
445.7083,880.0
445.7693,822.0
445.8303,910.0
445.8912,798.0
445.9522,854.0
446.0132,846.0
446.0742,843.0
446.1352,809.0
446.1961,897.0
446.257,809.0
446.318,897.0
446.379,793.0
446.4399,866.0
446.5009,794.0
446.5618,842.0
446.6227,774.0
446.6836,856.0
446.7446,787.0
446.8055,859.0
446.8664,819.0
446.9273,871.0
446.9883,850.0
447.0491,883.0
447.11,801.0
447.171,865.0
447.2319,761.0
447.2927,911.0
447.3536,811.0
447.4145,850.0
447.4753,824.0
447.5363,844.0
447.5971,789.0
447.658,879.0
447.7188,783.0
447.7797,820.0
447.8405,720.0
447.9014,860.0
447.9623,783.0
448.0231,813.0
448.0839,746.0
448.1447,854.0
448.2056,752.0
448.2664,831.0
448.3272,758.0
448.3881,859.0
448.4489,781.0
448.5096,852.0
448.5705,777.0
448.6312,793.0
448.6921,769.0
448.7529,900.0
448.8137,752.0
448.8744,832.0
448.9352,752.0
448.9959,836.0
449.0567,772.0
449.1175,862.0
449.1783,760.0
449.239,812.0
449.2998,756.0
449.3605,858.0
449.4213,765.0
449.4821,830.0
449.5428,762.0
449.6035,858.0
449.6642,715.0
449.725,804.0
449.7857,761.0
449.8464,845.0
449.9071,757.0
449.9679,803.0
450.0285,770.0
450.0892,834.0
450.1499,710.0
450.2106,802.0
450.2714,751.0
450.332,843.0
450.3927,759.0
450.4534,825.0
450.514,755.0
450.5747,815.0
450.6354,737.0
450.696,817.0
450.7567,702.0
450.8174,769.0
450.878,739.0
450.9386,804.0
450.9993,754.0
451.0599,873.0
451.1206,748.0
451.1812,793.0
451.2418,754.0
451.3024,761.0
451.363,708.0
451.4236,816.0
451.4843,702.0
451.5449,835.0
451.6054,726.0
451.666,822.0
451.7267,742.0
451.7873,797.0
451.8478,771.0
451.9084,815.0
451.969,695.0
452.0295,797.0
452.0901,770.0
452.1507,799.0
452.2113,757.0
452.2718,773.0
452.3324,744.0
452.3929,765.0
452.4534,703.0
452.5139,812.0
452.5745,708.0
452.635,822.0
452.6956,754.0
452.7561,777.0
452.8166,744.0
452.8771,792.0
452.9377,725.0
452.9981,779.0
453.0586,730.0
453.1191,856.0
453.1796,774.0
453.2401,826.0
453.3006,733.0
453.3611,805.0
453.4216,730.0
453.4821,839.0
453.5425,743.0
453.6029,836.0
453.6634,744.0
453.7239,803.0
453.7844,789.0
453.8448,859.0
453.9052,750.0
453.9656,802.0
454.0261,781.0
454.0866,882.0
454.147,729.0
454.2074,841.0
454.2678,747.0
454.3282,824.0
454.3886,773.0
454.449,830.0
454.5095,734.0
454.5699,807.0
454.6302,758.0
454.6906,840.0
454.751,719.0
454.8114,841.0
454.8718,749.0
454.9322,861.0
454.9925,720.0
455.0529,839.0
455.1133,770.0
455.1736,840.0
455.234,774.0
455.2943,828.0
455.3547,813.0
455.415,875.0
455.4753,804.0
455.5357,855.0
455.5959,730.0
455.6563,814.0
455.7167,767.0
455.777,890.0
455.8373,737.0
455.8976,805.0
455.9579,795.0
456.0182,857.0
456.0785,751.0
456.1388,824.0
456.1991,782.0
456.2593,861.0
456.3196,782.0
456.3799,825.0
456.4402,768.0
456.5005,811.0
456.5607,734.0
456.621,797.0
456.6812,746.0
456.7414,830.0
456.8018,803.0
456.862,837.0
456.9222,746.0
456.9825,889.0
457.0426,731.0
457.1028,779.0
457.1631,768.0
457.2234,837.0
457.2835,742.0
457.3438,839.0
457.404,773.0
457.4641,820.0
457.5244,792.0
457.5846,873.0
457.6447,777.0
457.7049,872.0
457.7651,746.0
457.8253,862.0
457.8854,732.0
457.9456,826.0
458.0058,746.0
458.0659,827.0
458.1261,721.0
458.1862,824.0
458.2464,735.0
458.3066,881.0
458.3667,765.0
458.4268,870.0
458.4869,810.0
458.5471,701.0
458.6072,610.0
458.6674,684.0
458.7274,567.0
458.7876,705.0
458.8477,648.0
458.9077,695.0
458.9679,602.0
459.0279,675.0
459.0881,632.0
459.1481,688.0
459.2082,623.0
459.2683,727.0
459.3283,607.0
459.3884,696.0
459.4485,636.0
459.5086,649.0
459.5686,563.0
459.6287,659.0
459.6887,626.0
459.7487,714.0
459.8088,628.0
459.8688,719.0
459.9289,631.0
459.9889,697.0
460.0489,641.0
460.1089,704.0
460.1689,627.0
460.229,679.0
460.289,608.0
