Laser settings:
	Diode frequency:	5 Hz
	Pulses fired:		105
	Q-Switch blanking:	5
	Q-Switch delay:		201 μs
	Q-Switch presync:	1 μs
Spectrometer settings:
	Integration time:	0.0090 ms
	Integration delay:	0.000 ns
	Averaging:		1
	Trigger mode:		External
	Dynamic Dark Correction:		Disabled


wavelength,intensity
184.9409,639.0
185.0142,580.0
185.0875,645.0
185.1608,657.0
185.2341,679.0
185.3074,603.0
185.3807,718.0
185.454,646.0
185.5273,690.0
185.6006,659.0
185.6739,659.0
185.7472,609.0
185.8205,717.0
185.8938,631.0
185.9671,735.0
186.0403,659.0
186.1136,682.0
186.1869,618.0
186.2601,687.0
186.3334,561.0
186.4067,691.0
186.4799,597.0
186.5532,679.0
186.6265,593.0
186.6997,700.0
186.773,641.0
186.8462,668.0
186.9195,597.0
186.9928,684.0
187.066,626.0
187.1392,674.0
187.2125,630.0
187.2857,662.0
187.3589,632.0
187.4322,689.0
187.5054,643.0
187.5786,701.0
187.6519,653.0
187.7251,702.0
187.7983,630.0
187.8715,687.0
187.9447,640.0
188.018,702.0
188.0912,653.0
188.1644,705.0
188.2376,593.0
188.3108,714.0
188.384,657.0
188.4572,686.0
188.5304,670.0
188.6036,710.0
188.6768,649.0
188.75,744.0
188.8232,633.0
188.8963,691.0
188.9695,621.0
189.0427,684.0
189.1159,658.0
189.1891,710.0
189.2623,719.0
189.3354,698.0
189.4086,676.0
189.4818,721.0
189.5549,613.0
189.6281,747.0
189.7012,649.0
189.7744,722.0
189.8476,672.0
189.9207,728.0
189.9939,675.0
190.067,700.0
190.1402,711.0
190.2133,748.0
190.2864,664.0
190.3596,753.0
190.4327,676.0
190.5059,745.0
190.579,638.0
190.6521,726.0
190.7253,666.0
190.7984,728.0
190.8715,664.0
190.9446,727.0
191.0177,645.0
191.0908,693.0
191.164,648.0
191.2371,736.0
191.3102,695.0
191.3833,740.0
191.4564,680.0
191.5295,830.0
191.6026,650.0
191.6757,767.0
191.7488,648.0
191.8219,732.0
191.895,683.0
191.968,729.0
192.0411,655.0
192.1142,750.0
192.1873,680.0
192.2604,777.0
192.3334,668.0
192.4065,805.0
192.4796,713.0
192.5527,778.0
192.6257,690.0
192.6988,786.0
192.7718,784.0
192.8449,826.0
192.918,805.0
192.991,915.0
193.064,1023.0
193.1371,1094.0
193.2101,933.0
193.2832,948.0
193.3562,857.0
193.4292,809.0
193.5023,815.0
193.5753,830.0
193.6484,740.0
193.7214,818.0
193.7944,738.0
193.8674,821.0
193.9405,697.0
194.0135,794.0
194.0865,695.0
194.1595,789.0
194.2325,704.0
194.3055,792.0
194.3785,673.0
194.4515,763.0
194.5246,744.0
194.5975,764.0
194.6705,682.0
194.7435,752.0
194.8165,681.0
194.8895,804.0
194.9625,704.0
195.0355,779.0
195.1085,696.0
195.1815,744.0
195.2544,666.0
195.3274,802.0
195.4004,711.0
195.4734,778.0
195.5463,692.0
195.6193,767.0
195.6923,705.0
195.7652,795.0
195.8382,717.0
195.9111,776.0
195.9841,711.0
196.057,792.0
196.13,719.0
196.2029,758.0
196.2759,662.0
196.3488,755.0
196.4218,686.0
196.4947,749.0
196.5676,679.0
196.6406,801.0
196.7135,695.0
196.7864,799.0
196.8593,698.0
196.9323,765.0
197.0052,724.0
197.0781,787.0
197.151,677.0
197.2239,751.0
197.2969,680.0
197.3697,788.0
197.4427,645.0
197.5156,802.0
197.5885,743.0
197.6614,762.0
197.7343,692.0
197.8072,798.0
197.88,697.0
197.9529,751.0
198.0258,679.0
198.0987,780.0
198.1716,719.0
198.2445,724.0
198.3173,717.0
198.3902,771.0
198.4631,704.0
198.5359,777.0
198.6088,616.0
198.6817,798.0
198.7545,723.0
198.8274,780.0
198.9003,708.0
198.9731,762.0
199.046,681.0
199.1188,761.0
199.1917,672.0
199.2645,760.0
199.3373,689.0
199.4102,726.0
199.483,720.0
199.5559,748.0
199.6287,702.0
199.7015,746.0
199.7744,735.0
199.8472,760.0
199.92,682.0
199.9928,763.0
200.0656,715.0
200.1385,739.0
200.2113,716.0
200.2841,757.0
200.3569,689.0
200.4297,763.0
200.5025,657.0
200.5753,770.0
200.6481,710.0
200.7209,746.0
200.7937,665.0
200.8665,746.0
200.9393,691.0
201.0121,741.0
201.0848,695.0
201.1576,810.0
201.2304,643.0
201.3032,753.0
201.3759,704.0
201.4487,709.0
201.5215,711.0
201.5943,775.0
201.667,684.0
201.7398,742.0
201.8125,664.0
201.8853,749.0
201.958,649.0
202.0308,824.0
202.1035,695.0
202.1763,792.0
202.249,722.0
202.3218,764.0
202.3945,696.0
202.4673,755.0
202.54,710.0
202.6127,787.0
202.6855,658.0
202.7582,762.0
202.8309,677.0
202.9036,757.0
202.9764,681.0
203.0491,769.0
203.1218,681.0
203.1945,780.0
203.2672,714.0
203.3399,758.0
203.4126,680.0
203.4853,782.0
203.558,704.0
203.6307,747.0
203.7034,725.0
203.7761,750.0
203.8488,725.0
203.9215,752.0
203.9942,699.0
204.0669,774.0
204.1395,685.0
204.2122,764.0
204.2849,714.0
204.3576,759.0
204.4302,701.0
204.5029,804.0
204.5756,744.0
204.6482,775.0
204.7209,691.0
204.7935,818.0
204.8662,672.0
204.9389,808.0
205.0115,723.0
205.0842,767.0
205.1568,721.0
205.2294,724.0
205.3021,720.0
205.3747,769.0
205.4474,721.0
205.52,754.0
205.5926,694.0
205.6653,784.0
205.7379,694.0
205.8105,772.0
205.8831,707.0
205.9557,741.0
206.0284,686.0
206.101,753.0
206.1736,660.0
206.2462,773.0
206.3188,712.0
206.3914,789.0
206.464,708.0
206.5366,772.0
206.6092,658.0
206.6818,764.0
206.7544,734.0
206.827,796.0
206.8996,676.0
206.9721,759.0
207.0447,706.0
207.1173,737.0
207.1899,692.0
207.2625,790.0
207.335,715.0
207.4076,789.0
207.4802,720.0
207.5527,784.0
207.6253,689.0
207.6978,789.0
207.7704,682.0
207.843,768.0
207.9155,658.0
207.9881,774.0
208.0606,726.0
208.1331,771.0
208.2057,740.0
208.2782,791.0
208.3508,753.0
208.4233,813.0
208.4958,727.0
208.5684,790.0
208.6409,689.0
208.7134,798.0
208.7859,688.0
208.8584,799.0
208.931,717.0
209.0035,746.0
209.076,693.0
209.1485,804.0
209.221,715.0
209.2935,734.0
209.366,721.0
209.4385,798.0
209.511,700.0
209.5835,787.0
209.656,689.0
209.7285,762.0
209.801,673.0
209.8735,794.0
209.9459,689.0
210.0184,802.0
210.0909,643.0
210.1634,788.0
210.2358,731.0
210.3083,734.0
210.3808,677.0
210.4532,781.0
210.5257,696.0
210.5982,773.0
210.6706,697.0
210.7431,758.0
210.8155,686.0
210.888,732.0
210.9604,694.0
211.0329,734.0
211.1053,649.0
211.1777,705.0
211.2502,692.0
211.3226,725.0
211.3951,697.0
211.4675,760.0
211.5399,692.0
211.6123,760.0
211.6847,678.0
211.7572,774.0
211.8296,670.0
211.902,758.0
211.9744,714.0
212.0468,757.0
212.1192,709.0
212.1917,755.0
212.264,679.0
212.3364,733.0
212.4088,732.0
212.4812,782.0
212.5536,743.0
212.626,783.0
212.6984,714.0
212.7708,772.0
212.8432,713.0
212.9155,831.0
212.9879,695.0
213.0603,743.0
213.1326,734.0
213.205,786.0
213.2774,717.0
213.3498,749.0
213.4221,697.0
213.4945,775.0
213.5668,695.0
213.6392,760.0
213.7115,700.0
213.7839,782.0
213.8562,717.0
213.9286,727.0
214.0009,712.0
214.0732,742.0
214.1456,733.0
214.2179,788.0
214.2903,691.0
214.3626,744.0
214.4349,713.0
214.5072,794.0
214.5796,712.0
214.6519,745.0
214.7242,742.0
214.7965,766.0
214.8688,677.0
214.9411,732.0
215.0134,728.0
215.0857,829.0
215.158,741.0
215.2303,802.0
215.3026,720.0
215.3749,810.0
215.4472,714.0
215.5195,812.0
215.5918,709.0
215.6641,792.0
215.7363,729.0
215.8086,779.0
215.8809,714.0
215.9532,766.0
216.0254,726.0
216.0977,738.0
216.17,707.0
216.2422,775.0
216.3145,735.0
216.3867,817.0
216.459,735.0
216.5313,793.0
216.6035,717.0
216.6758,783.0
216.748,670.0
216.8202,777.0
216.8925,726.0
216.9647,768.0
217.037,699.0
217.1092,775.0
217.1814,684.0
217.2536,777.0
217.3259,726.0
217.3981,785.0
217.4703,713.0
217.5425,760.0
217.6147,742.0
217.687,839.0
217.7592,746.0
217.8314,830.0
217.9035,722.0
217.9758,785.0
218.048,755.0
218.1201,805.0
218.1924,747.0
218.2645,807.0
218.3367,744.0
218.4089,783.0
218.4811,698.0
218.5533,805.0
218.6255,693.0
218.6976,806.0
218.7698,747.0
218.842,769.0
218.9142,734.0
218.9863,766.0
219.0585,715.0
219.1306,797.0
219.2028,760.0
219.2749,785.0
219.3471,749.0
219.4193,835.0
219.4914,730.0
219.5636,804.0
219.6357,754.0
219.7078,800.0
219.78,757.0
219.8521,819.0
219.9242,758.0
219.9964,839.0
220.0685,766.0
220.1406,778.0
220.2128,737.0
220.2849,823.0
220.357,777.0
220.4291,795.0
220.5012,719.0
220.5733,846.0
220.6454,757.0
220.7175,864.0
220.7896,769.0
220.8617,825.0
220.9338,747.0
221.0059,832.0
221.078,776.0
221.1501,838.0
221.2222,738.0
221.2943,861.0
221.3663,738.0
221.4384,846.0
221.5105,749.0
221.5826,817.0
221.6546,762.0
221.7267,815.0
221.7988,757.0
221.8708,862.0
221.9429,748.0
222.015,805.0
222.087,771.0
222.1591,864.0
222.2311,761.0
222.3032,832.0
222.3752,744.0
222.4473,831.0
222.5193,728.0
222.5913,806.0
222.6634,746.0
222.7354,842.0
222.8074,733.0
222.8795,810.0
222.9515,699.0
223.0235,771.0
223.0955,739.0
223.1675,788.0
223.2395,795.0
223.3116,797.0
223.3836,719.0
223.4556,871.0
223.5276,780.0
223.5996,827.0
223.6716,750.0
223.7436,847.0
223.8156,711.0
223.8876,840.0
223.9595,779.0
224.0315,769.0
224.1035,751.0
224.1755,785.0
224.2475,766.0
224.3195,841.0
224.3914,792.0
224.4634,863.0
224.5354,750.0
224.6073,829.0
224.6793,742.0
224.7512,792.0
224.8232,751.0
224.8952,849.0
224.9671,744.0
225.0391,823.0
225.111,790.0
225.1829,859.0
225.2549,778.0
225.3268,808.0
225.3988,775.0
225.4707,861.0
225.5426,771.0
225.6146,841.0
225.6865,804.0
225.7584,865.0
225.8303,772.0
225.9022,841.0
225.9742,810.0
226.0461,862.0
226.118,768.0
226.1899,882.0
226.2618,838.0
226.3337,861.0
226.4056,809.0
226.4775,884.0
226.5494,783.0
226.6213,843.0
226.6932,796.0
226.7651,844.0
226.8369,762.0
226.9088,869.0
226.9807,767.0
227.0526,888.0
227.1245,784.0
227.1963,873.0
227.2682,806.0
227.3401,873.0
227.4119,790.0
227.4838,854.0
227.5556,772.0
227.6275,889.0
227.6993,774.0
227.7712,847.0
227.8431,815.0
227.9149,842.0
227.9867,784.0
228.0586,801.0
228.1304,761.0
228.2023,849.0
228.2741,779.0
228.3459,900.0
228.4177,806.0
228.4896,854.0
228.5614,772.0
228.6332,845.0
228.705,790.0
228.7768,893.0
228.8486,777.0
228.9205,882.0
228.9923,828.0
229.0641,903.0
229.1359,862.0
229.2077,912.0
229.2794,879.0
229.3513,1080.0
229.423,993.0
229.4948,1219.0
229.5666,1172.0
229.6384,1313.0
229.7102,1356.0
229.782,1230.0
229.8537,953.0
229.9255,926.0
229.9973,852.0
230.069,878.0
230.1408,771.0
230.2126,880.0
230.2843,747.0
230.3561,826.0
230.4278,759.0
230.4996,815.0
230.5713,730.0
230.6431,841.0
230.7148,751.0
230.7866,803.0
230.8583,791.0
230.93,765.0
231.0018,742.0
231.0735,831.0
231.1452,747.0
231.2169,851.0
231.2887,736.0
231.3604,865.0
231.4321,787.0
231.5038,841.0
231.5755,769.0
231.6472,788.0
231.7189,754.0
231.7906,815.0
231.8624,766.0
231.9341,858.0
232.0057,764.0
232.0774,859.0
232.1491,795.0
232.2208,837.0
232.2925,755.0
232.3642,818.0
232.4359,761.0
232.5075,857.0
232.5792,770.0
232.6509,855.0
232.7225,765.0
232.7942,826.0
232.8659,724.0
232.9375,813.0
233.0092,751.0
233.0809,838.0
233.1525,747.0
233.2242,844.0
233.2958,764.0
233.3675,821.0
233.4391,753.0
233.5107,843.0
233.5824,748.0
233.654,838.0
233.7256,762.0
233.7973,810.0
233.8689,775.0
233.9405,850.0
234.0121,787.0
234.0838,849.0
234.1554,755.0
234.227,817.0
234.2986,751.0
234.3702,827.0
234.4418,720.0
234.5134,831.0
234.585,762.0
234.6566,825.0
234.7282,749.0
234.7998,816.0
234.8714,765.0
234.943,833.0
235.0146,750.0
235.0862,852.0
235.1577,774.0
235.2293,792.0
235.3009,762.0
235.3725,861.0
235.444,790.0
235.5156,843.0
235.5872,714.0
235.6587,857.0
235.7303,762.0
235.8018,837.0
235.8734,737.0
235.9449,815.0
236.0165,794.0
236.088,855.0
236.1596,778.0
236.2311,822.0
236.3026,777.0
236.3742,861.0
236.4457,775.0
236.5172,803.0
236.5887,785.0
236.6603,818.0
236.7318,796.0
236.8033,893.0
236.8748,765.0
236.9464,840.0
237.0179,761.0
237.0894,842.0
237.1609,804.0
237.2324,856.0
237.3039,774.0
237.3754,844.0
237.4469,823.0
237.5184,882.0
237.5898,780.0
237.6613,861.0
237.7328,794.0
237.8043,883.0
237.8758,825.0
237.9472,840.0
238.0187,798.0
238.0902,905.0
238.1617,775.0
238.2331,850.0
238.3046,796.0
238.376,859.0
238.4475,816.0
238.519,851.0
238.5904,831.0
238.6618,872.0
238.7333,787.0
238.8047,846.0
238.8762,763.0
238.9476,871.0
239.0191,768.0
239.0905,867.0
239.1619,791.0
239.2334,873.0
239.3048,767.0
239.3762,848.0
239.4476,807.0
239.519,857.0
239.5904,806.0
239.6619,895.0
239.7333,756.0
239.8047,871.0
239.8761,770.0
239.9475,871.0
240.0189,785.0
240.0903,920.0
240.1617,803.0
240.233,891.0
240.3044,779.0
240.3758,886.0
240.4472,788.0
240.5186,843.0
240.59,785.0
240.6613,883.0
240.7327,831.0
240.8041,858.0
240.8754,775.0
240.9468,840.0
241.0181,769.0
241.0895,885.0
241.1609,777.0
241.2322,855.0
241.3036,770.0
241.3749,898.0
241.4462,786.0
241.5176,852.0
241.5889,809.0
241.6602,885.0
241.7316,763.0
241.8029,865.0
241.8743,768.0
241.9456,874.0
242.0169,756.0
242.0882,859.0
242.1595,832.0
242.2309,912.0
242.3022,755.0
242.3735,872.0
242.4448,807.0
242.5161,884.0
242.5874,808.0
242.6587,853.0
242.73,806.0
242.8013,841.0
242.8726,812.0
242.9438,880.0
243.0151,798.0
243.0864,869.0
243.1577,776.0
243.229,880.0
243.3002,760.0
243.3715,839.0
243.4428,802.0
243.5141,874.0
243.5853,786.0
243.6566,852.0
243.7278,785.0
243.7991,851.0
243.8703,831.0
243.9416,919.0
244.0128,812.0
244.0841,832.0
244.1553,779.0
244.2266,901.0
244.2978,773.0
244.369,874.0
244.4402,818.0
244.5115,861.0
244.5827,828.0
244.6539,854.0
244.7251,779.0
244.7964,857.0
244.8676,822.0
244.9388,888.0
245.01,777.0
245.0812,857.0
245.1524,814.0
245.2236,889.0
245.2948,800.0
245.366,842.0
245.4372,760.0
245.5084,841.0
245.5796,784.0
245.6507,808.0
245.7219,803.0
245.7931,850.0
245.8643,750.0
245.9355,830.0
246.0066,756.0
246.0778,839.0
246.149,781.0
246.2201,831.0
246.2913,761.0
246.3624,846.0
246.4336,787.0
246.5047,868.0
246.5759,763.0
246.647,832.0
246.7182,749.0
246.7893,875.0
246.8605,786.0
246.9316,915.0
247.0027,770.0
247.0739,850.0
247.145,765.0
247.2161,843.0
247.2872,765.0
247.3584,845.0
247.4295,793.0
247.5006,914.0
247.5717,857.0
247.6428,974.0
247.7139,1008.0
247.785,1176.0
247.8561,1269.0
247.9272,1500.0
247.9983,1263.0
248.0694,1162.0
248.1405,926.0
248.2116,960.0
248.2827,878.0
248.3537,915.0
248.4248,833.0
248.4959,937.0
248.5669,794.0
248.638,903.0
248.7091,773.0
248.7802,866.0
248.8512,760.0
248.9223,883.0
248.9933,781.0
249.0644,832.0
249.1354,767.0
249.2065,848.0
249.2775,765.0
249.3486,874.0
249.4196,768.0
249.4906,847.0
249.5617,812.0
249.6327,832.0
249.7037,769.0
249.7747,852.0
249.8458,767.0
249.9168,882.0
249.9878,798.0
250.0588,868.0
250.1298,798.0
250.2009,857.0
250.2719,823.0
250.3429,847.0
250.4138,784.0
250.4849,881.0
250.5558,804.0
250.6268,871.0
250.6978,863.0
250.7688,950.0
250.8398,902.0
250.9108,1042.0
250.9818,959.0
251.0527,1033.0
251.1237,945.0
251.1947,1095.0
251.2657,973.0
251.3366,975.0
251.4076,832.0
251.4785,876.0
251.5495,809.0
251.6205,904.0
251.6914,799.0
251.7623,912.0
251.8333,832.0
251.9042,874.0
251.9752,838.0
252.0461,901.0
252.1171,748.0
252.188,796.0
252.2589,761.0
252.3298,849.0
252.4008,802.0
252.4717,842.0
252.5426,770.0
252.6135,800.0
252.6844,756.0
252.7553,815.0
252.8262,791.0
252.8971,853.0
252.9681,760.0
253.039,886.0
253.1098,785.0
253.1808,811.0
253.2516,732.0
253.3225,862.0
253.3934,771.0
253.4643,810.0
253.5352,777.0
253.606,882.0
253.6769,781.0
253.7478,841.0
253.8187,815.0
253.8895,850.0
253.9604,713.0
254.0312,848.0
254.1021,740.0
254.173,825.0
254.2438,749.0
254.3147,850.0
254.3855,776.0
254.4563,766.0
254.5272,760.0
254.598,882.0
254.6689,787.0
254.7397,856.0
254.8105,761.0
254.8813,852.0
254.9522,727.0
255.023,837.0
255.0938,756.0
255.1646,842.0
255.2354,776.0
255.3062,903.0
255.3771,694.0
255.4479,864.0
255.5187,771.0
255.5894,836.0
255.6603,793.0
255.731,863.0
255.8018,738.0
255.8726,861.0
255.9434,762.0
256.0142,836.0
256.085,741.0
256.1558,833.0
256.2265,790.0
256.2973,851.0
256.3681,800.0
256.4388,904.0
256.5096,760.0
256.5804,819.0
256.6511,771.0
256.7219,854.0
256.7926,762.0
256.8634,836.0
256.9341,791.0
257.0049,831.0
257.0756,755.0
257.1463,845.0
257.2171,774.0
257.2878,851.0
257.3585,781.0
257.4292,811.0
257.5,746.0
257.5707,861.0
257.6414,751.0
257.7122,848.0
257.7828,769.0
257.8535,829.0
257.9243,770.0
257.995,889.0
258.0657,792.0
258.1364,844.0
258.2071,788.0
258.2777,837.0
258.3484,758.0
258.4191,796.0
258.4898,770.0
258.5605,818.0
258.6312,732.0
258.7018,845.0
258.7725,758.0
258.8432,815.0
258.9139,747.0
258.9845,794.0
259.0552,702.0
259.1259,839.0
259.1965,747.0
259.2672,849.0
259.3378,763.0
259.4085,793.0
259.4791,765.0
259.5497,803.0
259.6204,678.0
259.691,849.0
259.7617,758.0
259.8323,910.0
259.9029,769.0
259.9735,847.0
260.0442,752.0
260.1147,779.0
260.1854,783.0
260.256,848.0
260.3267,719.0
260.3972,840.0
260.4678,781.0
260.5384,823.0
260.6091,742.0
260.6796,823.0
260.7502,770.0
260.8208,804.0
260.8914,743.0
260.962,885.0
261.0326,783.0
261.1032,827.0
261.1737,772.0
261.2444,823.0
261.3149,814.0
261.3854,839.0
261.456,735.0
261.5266,842.0
261.5971,789.0
261.6677,833.0
261.7383,815.0
261.8088,827.0
261.8794,751.0
261.9499,856.0
262.0205,794.0
262.091,859.0
262.1615,801.0
262.2321,885.0
262.3026,810.0
262.3731,881.0
262.4437,739.0
262.5142,856.0
262.5847,812.0
262.6552,855.0
262.7257,798.0
262.7962,887.0
262.8668,782.0
262.9373,848.0
263.0078,775.0
263.0783,811.0
263.1488,809.0
263.2193,821.0
263.2898,754.0
263.3603,861.0
263.4307,769.0
263.5012,876.0
263.5717,810.0
263.6422,827.0
263.7127,778.0
263.7831,832.0
263.8536,806.0
263.9241,855.0
263.9945,773.0
264.065,877.0
264.1354,782.0
264.2059,843.0
264.2764,753.0
264.3468,848.0
264.4173,734.0
264.4877,877.0
264.5581,739.0
264.6286,854.0
264.699,774.0
264.7694,857.0
264.8399,790.0
264.9103,871.0
264.9807,743.0
265.0511,869.0
265.1216,764.0
265.192,881.0
265.2625,769.0
265.3328,837.0
265.4032,734.0
265.4736,822.0
265.5441,766.0
265.6144,816.0
265.6848,734.0
265.7552,821.0
265.8256,807.0
265.896,849.0
265.9664,726.0
266.0368,823.0
266.1071,768.0
266.1775,811.0
266.2479,744.0
266.3183,809.0
266.3886,755.0
266.459,806.0
266.5294,729.0
266.5998,852.0
266.6701,756.0
266.7404,865.0
266.8108,735.0
266.8812,802.0
266.9515,708.0
267.0219,840.0
267.0922,740.0
267.1625,805.0
267.2328,799.0
267.3032,852.0
267.3735,728.0
267.4438,796.0
267.5142,708.0
267.5845,871.0
267.6548,826.0
267.7251,842.0
267.7954,704.0
267.8657,790.0
267.936,767.0
268.0063,813.0
268.0766,763.0
268.1469,824.0
268.2172,733.0
268.2875,847.0
268.3578,756.0
268.4281,801.0
268.4984,738.0
268.5686,812.0
268.6389,741.0
268.7092,762.0
268.7794,792.0
268.8498,823.0
268.92,766.0
268.9902,844.0
269.0605,775.0
269.1308,800.0
269.201,801.0
269.2713,805.0
269.3415,732.0
269.4118,819.0
269.482,770.0
269.5523,846.0
269.6225,698.0
269.6927,804.0
269.7629,719.0
269.8332,819.0
269.9034,715.0
269.9736,807.0
270.0439,742.0
270.114,807.0
270.1843,747.0
270.2545,807.0
270.3247,743.0
270.3949,773.0
270.4651,739.0
270.5353,835.0
270.6055,743.0
270.6757,805.0
270.7459,710.0
270.8161,865.0
270.8863,795.0
270.9564,833.0
271.0266,784.0
271.0968,849.0
271.167,722.0
271.2371,837.0
271.3073,750.0
271.3775,862.0
271.4476,736.0
271.5178,859.0
271.588,774.0
271.6581,859.0
271.7282,771.0
271.7984,838.0
271.8685,731.0
271.9387,833.0
272.0088,803.0
272.0789,823.0
272.1491,789.0
272.2192,837.0
272.2893,778.0
272.3595,809.0
272.4296,757.0
272.4997,880.0
272.5698,750.0
272.64,841.0
272.7101,780.0
272.7802,862.0
272.8503,796.0
272.9204,867.0
272.9904,750.0
273.0605,902.0
273.1306,791.0
273.2007,856.0
273.2708,739.0
273.3409,835.0
273.411,831.0
273.481,829.0
273.5511,814.0
273.6212,867.0
273.6913,787.0
273.7614,905.0
273.8314,758.0
273.9015,871.0
273.9715,811.0
274.0416,849.0
274.1116,776.0
274.1817,871.0
274.2517,843.0
274.3217,919.0
274.3918,826.0
274.4619,912.0
274.5319,799.0
274.602,853.0
274.6719,847.0
274.742,893.0
274.812,866.0
274.882,887.0
274.952,772.0
275.0221,865.0
275.0921,786.0
275.1621,859.0
275.2321,809.0
275.3021,892.0
275.3721,762.0
275.4421,823.0
275.5121,773.0
275.5821,880.0
275.6521,820.0
275.722,875.0
275.792,837.0
275.862,864.0
275.932,762.0
276.002,844.0
276.0719,811.0
276.1418,848.0
276.2119,780.0
276.2818,869.0
276.3517,784.0
276.4218,879.0
276.4917,826.0
276.5616,832.0
276.6316,778.0
276.7015,912.0
276.7715,803.0
276.8414,845.0
276.9113,726.0
276.9813,877.0
277.0512,778.0
277.1211,845.0
277.191,812.0
277.261,861.0
277.3309,782.0
277.4008,863.0
277.4707,774.0
277.5406,874.0
277.6105,784.0
277.6804,837.0
277.7503,755.0
277.8202,829.0
277.8901,779.0
277.96,856.0
278.0299,740.0
278.0998,835.0
278.1697,762.0
278.2396,849.0
278.3094,768.0
278.3793,884.0
278.4492,777.0
278.519,833.0
278.5889,800.0
278.6588,832.0
278.7286,754.0
278.7985,848.0
278.8683,808.0
278.9382,876.0
279.0081,808.0
279.0779,859.0
279.1477,764.0
279.2176,856.0
279.2874,770.0
279.3572,894.0
279.4271,777.0
279.4969,920.0
279.5667,798.0
279.6365,891.0
279.7063,797.0
279.7762,870.0
279.846,788.0
279.9158,865.0
279.9856,807.0
280.0554,858.0
280.1252,835.0
280.195,866.0
280.2648,736.0
280.3346,843.0
280.4044,811.0
280.4742,909.0
280.544,819.0
280.6137,868.0
280.6835,815.0
280.7533,867.0
280.8231,810.0
280.8928,869.0
280.9626,846.0
281.0323,881.0
281.1021,827.0
281.1719,937.0
281.2416,854.0
281.3114,891.0
281.3811,832.0
281.4509,907.0
281.5206,806.0
281.5904,889.0
281.6601,753.0
281.7299,894.0
281.7996,833.0
281.8693,899.0
281.939,822.0
282.0088,882.0
282.0784,811.0
282.1482,864.0
282.2179,785.0
282.2876,851.0
282.3573,813.0
282.427,885.0
282.4967,838.0
282.5664,880.0
282.6361,813.0
282.7058,936.0
282.7755,792.0
282.8452,871.0
282.9149,838.0
282.9845,862.0
283.0542,806.0
283.1239,902.0
283.1936,817.0
283.2632,931.0
283.3329,851.0
283.4026,949.0
283.4722,835.0
283.5419,932.0
283.6115,859.0
283.6812,973.0
283.7508,852.0
283.8205,963.0
283.8901,858.0
283.9597,979.0
284.0294,854.0
284.099,958.0
284.1686,847.0
284.2383,941.0
284.3079,835.0
284.3775,861.0
284.4471,821.0
284.5168,925.0
284.5864,810.0
284.656,903.0
284.7256,812.0
284.7952,894.0
284.8648,822.0
284.9344,911.0
285.004,819.0
285.0736,932.0
285.1432,793.0
285.2128,869.0
285.2823,795.0
285.3519,927.0
285.4215,784.0
285.4911,868.0
285.5606,826.0
285.6302,859.0
285.6998,791.0
285.7693,904.0
285.8389,822.0
285.9084,853.0
285.978,763.0
286.0475,821.0
286.1171,800.0
286.1866,893.0
286.2562,782.0
286.3257,875.0
286.3952,850.0
286.4648,860.0
286.5343,826.0
286.6039,869.0
286.6733,741.0
286.7429,809.0
286.8124,768.0
286.8819,853.0
286.9514,786.0
287.0209,868.0
287.0904,770.0
287.1599,900.0
287.2294,844.0
287.299,873.0
287.3684,734.0
287.4379,853.0
287.5074,760.0
287.5769,876.0
287.6464,770.0
287.7159,901.0
287.7853,776.0
287.8548,864.0
287.9243,832.0
287.9937,857.0
288.0632,826.0
288.1327,872.0
288.2021,778.0
288.2716,864.0
288.341,838.0
288.4105,863.0
288.4799,780.0
288.5493,879.0
288.6188,784.0
288.6882,869.0
288.7577,783.0
288.8271,904.0
288.8965,785.0
288.9659,930.0
289.0354,790.0
289.1048,841.0
289.1742,744.0
289.2436,878.0
289.313,803.0
289.3824,873.0
289.4518,858.0
289.5212,910.0
289.5906,737.0
289.66,867.0
289.7294,804.0
289.7988,857.0
289.8682,873.0
289.9376,878.0
290.007,795.0
290.0764,930.0
290.1457,848.0
290.2151,918.0
290.2844,771.0
290.3538,883.0
290.4232,799.0
290.4925,874.0
290.5619,817.0
290.6312,859.0
290.7006,765.0
290.7699,919.0
290.8393,789.0
290.9086,910.0
290.978,879.0
291.0473,870.0
291.1166,855.0
291.1859,882.0
291.2553,801.0
291.3246,895.0
291.3939,813.0
291.4632,917.0
291.5325,829.0
291.6018,872.0
291.6712,797.0
291.7405,906.0
291.8098,834.0
291.8791,916.0
291.9484,814.0
292.0176,902.0
292.0869,821.0
292.1562,883.0
292.2255,808.0
292.2948,921.0
292.3641,805.0
292.4334,880.0
292.5026,839.0
292.5719,924.0
292.6412,806.0
292.7104,930.0
292.7797,884.0
292.8489,907.0
292.9182,804.0
292.9875,895.0
293.0567,813.0
293.1259,914.0
293.1952,839.0
293.2644,900.0
293.3336,829.0
293.4029,886.0
293.4721,807.0
293.5413,915.0
293.6106,854.0
293.6798,886.0
293.749,793.0
293.8182,947.0
293.8875,821.0
293.9566,899.0
294.0259,841.0
294.0951,930.0
294.1642,845.0
294.2334,930.0
294.3026,831.0
294.3718,930.0
294.441,817.0
294.5102,928.0
294.5794,857.0
294.6485,921.0
294.7177,811.0
294.7869,926.0
294.8561,840.0
294.9253,942.0
294.9944,808.0
295.0636,921.0
295.1327,827.0
295.2019,874.0
295.271,837.0
295.3402,882.0
295.4093,860.0
295.4785,925.0
295.5476,857.0
295.6168,900.0
295.6859,781.0
295.755,900.0
295.8241,818.0
295.8932,892.0
295.9623,848.0
296.0315,896.0
296.1006,824.0
296.1697,931.0
296.2388,828.0
296.3079,896.0
296.377,874.0
296.4461,914.0
296.5152,809.0
296.5843,914.0
296.6534,794.0
296.7225,913.0
296.7916,807.0
296.8606,950.0
296.9297,825.0
296.9988,927.0
297.0679,820.0
297.137,947.0
297.206,815.0
297.2751,930.0
297.3441,845.0
297.4132,910.0
297.4823,851.0
297.5513,897.0
297.6204,851.0
297.6894,928.0
297.7584,847.0
297.8275,927.0
297.8965,822.0
297.9655,913.0
298.0346,846.0
298.1036,891.0
298.1726,847.0
298.2417,879.0
298.3106,842.0
298.3797,895.0
298.4487,847.0
298.5177,875.0
298.5867,845.0
298.6557,913.0
298.7247,815.0
298.7937,913.0
298.8627,881.0
298.9317,906.0
299.0007,814.0
299.0696,915.0
299.1386,814.0
299.2076,924.0
299.2766,861.0
299.3456,891.0
299.4145,861.0
299.4835,901.0
299.5524,818.0
299.6214,898.0
299.6903,805.0
299.7593,946.0
299.8282,822.0
299.8972,899.0
299.9661,859.0
300.0351,902.0
300.104,829.0
300.173,897.0
300.2419,855.0
300.3108,951.0
300.3797,847.0
300.4487,978.0
300.5176,832.0
300.5865,885.0
300.6554,875.0
300.7243,921.0
300.7932,801.0
300.8621,930.0
300.931,866.0
300.9999,887.0
301.0688,838.0
301.1377,960.0
301.2066,843.0
301.2755,963.0
301.3444,795.0
301.4132,913.0
301.4821,810.0
301.551,927.0
301.6199,869.0
301.6887,941.0
301.7576,842.0
301.8265,937.0
301.8953,865.0
301.9642,914.0
302.033,860.0
302.1019,933.0
302.1707,854.0
302.2396,954.0
302.3084,863.0
302.3772,910.0
302.4461,872.0
302.5149,941.0
302.5837,863.0
302.6526,921.0
302.7214,835.0
302.7902,946.0
302.859,876.0
302.9278,865.0
302.9966,826.0
303.0654,935.0
303.1342,815.0
303.203,892.0
303.2718,826.0
303.3406,955.0
303.4094,847.0
303.4781,923.0
303.547,862.0
303.6158,931.0
303.6845,811.0
303.7533,909.0
303.8221,893.0
303.8908,931.0
303.9596,865.0
304.0284,909.0
304.0971,886.0
304.1659,950.0
304.2346,893.0
304.3034,918.0
304.3721,826.0
304.4409,893.0
304.5096,823.0
304.5784,920.0
304.6471,825.0
304.7158,933.0
304.7845,890.0
304.8533,907.0
304.922,824.0
304.9907,918.0
305.0594,870.0
305.1281,975.0
305.1969,871.0
305.2656,912.0
305.3343,829.0
305.403,903.0
305.4717,839.0
305.5403,911.0
305.609,842.0
305.6778,948.0
305.7464,815.0
305.8151,923.0
305.8838,835.0
305.9525,903.0
306.0211,802.0
306.0898,889.0
306.1585,827.0
306.2271,933.0
306.2958,845.0
306.3645,953.0
306.4331,834.0
306.5017,899.0
306.5704,838.0
306.6391,948.0
306.7077,822.0
306.7763,921.0
306.845,825.0
306.9136,927.0
306.9822,828.0
307.0508,925.0
307.1195,866.0
307.1881,912.0
307.2567,855.0
307.3253,930.0
307.3939,852.0
307.4625,923.0
307.5312,814.0
307.5998,917.0
307.6684,823.0
307.7369,884.0
307.8055,835.0
307.8741,945.0
307.9427,800.0
308.0113,909.0
308.0799,796.0
308.1484,881.0
308.217,818.0
308.2856,904.0
308.3542,814.0
308.4227,930.0
308.4913,806.0
308.5598,959.0
308.6284,806.0
308.6969,907.0
308.7655,833.0
308.834,931.0
308.9026,827.0
308.9711,875.0
309.0396,771.0
309.1082,878.0
309.1767,787.0
309.2452,909.0
309.3138,805.0
309.3823,893.0
309.4508,811.0
309.5193,909.0
309.5878,850.0
309.6563,934.0
309.7249,776.0
309.7933,919.0
309.8618,864.0
309.9303,907.0
309.9988,789.0
310.0673,950.0
310.1358,843.0
310.2043,874.0
310.2728,857.0
310.3412,930.0
310.4097,791.0
310.4781,921.0
310.5466,839.0
310.6151,886.0
310.6836,855.0
310.752,873.0
310.8205,780.0
310.8889,913.0
310.9574,809.0
311.0258,899.0
311.0943,808.0
311.1627,902.0
311.2311,818.0
311.2996,894.0
311.368,817.0
311.4364,896.0
311.5049,809.0
311.5733,901.0
311.6417,827.0
311.7101,904.0
311.7785,832.0
311.8469,902.0
311.9153,854.0
311.9837,947.0
312.0521,854.0
312.1205,914.0
312.1889,781.0
312.2573,893.0
312.3257,777.0
312.3941,881.0
312.4624,847.0
312.5308,844.0
312.5992,766.0
312.6675,872.0
312.7359,818.0
312.8043,861.0
312.8727,764.0
312.941,861.0
313.0093,824.0
313.0777,851.0
313.1461,784.0
313.2144,870.0
313.2827,806.0
313.3511,890.0
313.4194,761.0
313.4877,868.0
313.5561,755.0
313.6244,891.0
313.6927,785.0
313.761,864.0
313.8294,740.0
313.8977,823.0
313.966,749.0
314.0343,910.0
314.1026,780.0
314.1709,872.0
314.2392,813.0
314.3075,848.0
314.3758,775.0
314.4441,852.0
314.5124,782.0
314.5806,920.0
314.6489,766.0
314.7172,901.0
314.7855,830.0
314.8537,865.0
314.922,792.0
314.9903,897.0
315.0585,766.0
315.1268,889.0
315.195,810.0
315.2633,868.0
315.3315,860.0
315.3998,865.0
315.468,830.0
315.5362,885.0
315.6045,772.0
315.6727,890.0
315.7409,804.0
315.8092,899.0
315.8774,808.0
315.9456,890.0
316.0138,845.0
316.082,888.0
316.1502,809.0
316.2184,916.0
316.2867,853.0
316.3549,928.0
316.423,858.0
316.4912,908.0
316.5594,836.0
316.6276,930.0
316.6958,844.0
316.764,901.0
316.8322,814.0
316.9003,940.0
316.9685,809.0
317.0367,926.0
317.1049,846.0
317.173,911.0
317.2411,858.0
317.3093,928.0
317.3774,877.0
317.4456,901.0
317.5137,853.0
317.5819,923.0
317.65,848.0
317.7182,938.0
317.7863,826.0
317.8545,930.0
317.9225,829.0
317.9907,918.0
318.0588,811.0
318.1269,927.0
318.195,867.0
318.2631,914.0
318.3312,851.0
318.3994,915.0
318.4675,835.0
318.5355,935.0
318.6036,869.0
318.6717,929.0
318.7398,859.0
318.8079,909.0
318.876,833.0
318.9441,936.0
319.0121,886.0
319.0802,953.0
319.1483,878.0
319.2164,956.0
319.2844,866.0
319.3525,977.0
319.4205,824.0
319.4886,963.0
319.5566,866.0
319.6247,901.0
319.6927,874.0
319.7608,986.0
319.8288,879.0
319.8968,931.0
319.9648,906.0
320.0329,971.0
320.1009,861.0
320.1689,937.0
320.237,867.0
320.305,931.0
320.373,835.0
320.441,944.0
320.509,844.0
320.577,959.0
320.645,861.0
320.713,961.0
320.781,888.0
320.849,872.0
320.917,823.0
320.985,966.0
321.0529,876.0
321.1209,970.0
321.1889,842.0
321.2568,891.0
321.3248,901.0
321.3928,946.0
321.4608,859.0
321.5287,867.0
321.5966,809.0
321.6646,928.0
321.7325,851.0
321.8005,961.0
321.8684,833.0
321.9364,980.0
322.0043,836.0
322.0722,955.0
322.1401,838.0
322.2081,934.0
322.276,892.0
322.344,942.0
322.4119,897.0
322.4797,909.0
322.5477,839.0
322.6156,910.0
322.6835,847.0
322.7514,944.0
322.8193,812.0
322.8871,927.0
322.955,875.0
323.0229,949.0
323.0908,876.0
323.1588,960.0
323.2266,835.0
323.2945,899.0
323.3623,842.0
323.4302,952.0
323.4981,806.0
323.5659,953.0
323.6338,817.0
323.7016,929.0
323.7695,860.0
323.8373,919.0
323.9052,896.0
323.973,962.0
324.0409,842.0
324.1087,988.0
324.1765,877.0
324.2444,996.0
324.3122,849.0
324.38,967.0
324.4479,868.0
324.5157,974.0
324.5834,868.0
324.6512,952.0
324.7191,905.0
324.7869,912.0
324.8547,909.0
324.9225,948.0
324.9903,898.0
325.058,988.0
325.1259,902.0
325.1936,984.0
325.2614,846.0
325.3292,917.0
325.397,906.0
325.4647,957.0
325.5325,914.0
325.6002,935.0
325.668,896.0
325.7358,957.0
325.8036,862.0
325.8713,929.0
325.939,871.0
326.0068,936.0
326.0745,900.0
326.1422,875.0
326.21,852.0
326.2777,947.0
326.3455,862.0
326.4132,986.0
326.4809,853.0
326.5486,970.0
326.6164,873.0
326.6841,889.0
326.7518,837.0
326.8195,936.0
326.8872,869.0
326.9549,996.0
327.0226,800.0
327.0903,950.0
327.158,854.0
327.2256,928.0
327.2933,886.0
327.361,962.0
327.4287,805.0
327.4964,1005.0
327.5641,902.0
327.6317,911.0
327.6994,791.0
327.767,1024.0
327.8347,858.0
327.9023,981.0
327.97,893.0
328.0376,979.0
328.1053,848.0
328.1729,935.0
328.2406,888.0
328.3082,922.0
328.3759,891.0
328.4435,914.0
328.5111,871.0
328.5787,920.0
328.6463,849.0
328.7139,951.0
328.7816,847.0
328.8492,955.0
328.9168,814.0
328.9843,908.0
329.052,855.0
329.1196,933.0
329.1872,813.0
329.2548,969.0
329.3224,830.0
329.3899,901.0
329.4575,826.0
329.5251,954.0
329.5927,842.0
329.6602,913.0
329.7278,884.0
329.7953,929.0
329.8629,827.0
329.9305,969.0
329.998,862.0
330.0656,924.0
330.1331,800.0
330.2007,899.0
330.2682,816.0
330.3358,861.0
330.4033,834.0
330.4708,912.0
330.5383,843.0
330.6059,900.0
330.6734,842.0
330.7409,877.0
330.8084,840.0
330.876,915.0
330.9435,804.0
331.011,903.0
331.0784,800.0
331.1459,900.0
331.2134,829.0
331.2809,860.0
331.3484,825.0
331.4159,854.0
331.4834,812.0
331.5508,892.0
331.6183,838.0
331.6858,866.0
331.7533,799.0
331.8207,862.0
331.8882,830.0
331.9557,919.0
332.0231,809.0
332.0906,881.0
332.1581,797.0
332.2255,865.0
332.2929,783.0
332.3604,906.0
332.4278,814.0
332.4952,880.0
332.5627,808.0
332.6301,871.0
332.6975,817.0
332.7649,875.0
332.8323,790.0
332.8997,916.0
332.9672,847.0
333.0346,890.0
333.102,871.0
333.1694,901.0
333.2368,872.0
333.3042,871.0
333.3716,831.0
333.439,927.0
333.5063,856.0
333.5737,920.0
333.6411,825.0
333.7085,907.0
333.7758,841.0
333.8432,932.0
333.9106,836.0
333.9779,916.0
334.0453,777.0
334.1126,978.0
334.18,862.0
334.2473,948.0
334.3147,858.0
334.382,934.0
334.4494,867.0
334.5167,907.0
334.584,836.0
334.6514,897.0
334.7187,837.0
334.786,967.0
334.8533,853.0
334.9206,900.0
334.9879,812.0
335.0553,980.0
335.1226,797.0
335.1899,920.0
335.2572,870.0
335.3245,910.0
335.3918,852.0
335.459,938.0
335.5263,826.0
335.5936,893.0
335.6609,877.0
335.7282,922.0
335.7954,831.0
335.8627,947.0
335.93,872.0
335.9973,906.0
336.0645,777.0
336.1318,905.0
336.199,833.0
336.2662,904.0
336.3335,823.0
336.4008,938.0
336.468,752.0
336.5352,958.0
336.6024,866.0
336.6697,891.0
336.7369,853.0
336.8041,880.0
336.8714,811.0
336.9386,907.0
337.0058,855.0
337.073,914.0
337.1402,840.0
337.2074,895.0
337.2746,857.0
337.3418,893.0
337.409,789.0
337.4762,870.0
337.5434,813.0
337.6106,894.0
337.6777,796.0
337.7449,914.0
337.8121,813.0
337.8792,860.0
337.9464,779.0
338.0135,922.0
338.0807,807.0
338.1479,916.0
338.2151,788.0
338.2822,909.0
338.3493,799.0
338.4165,897.0
338.4836,808.0
338.5508,922.0
338.6179,780.0
338.6851,855.0
338.7521,840.0
338.8193,942.0
338.8864,825.0
338.9535,888.0
339.0206,823.0
339.0878,868.0
339.1548,813.0
339.222,908.0
339.289,848.0
339.3561,939.0
339.4233,802.0
339.4904,936.0
339.5574,828.0
339.6245,908.0
339.6916,837.0
339.7587,941.0
339.8257,800.0
339.8929,918.0
339.9599,822.0
340.0269,926.0
340.094,794.0
340.1611,896.0
340.2281,817.0
340.2952,869.0
340.3622,777.0
340.4293,855.0
340.4963,786.0
340.5633,858.0
340.6304,802.0
340.6974,868.0
340.7645,755.0
340.8315,893.0
340.8985,793.0
340.9655,859.0
341.0325,780.0
341.0995,905.0
341.1665,858.0
341.2335,870.0
341.3005,851.0
341.3675,916.0
341.4345,784.0
341.5015,881.0
341.5685,787.0
341.6355,913.0
341.7025,772.0
341.7694,916.0
341.8364,842.0
341.9034,885.0
341.9704,868.0
342.0373,900.0
342.1043,794.0
342.1712,865.0
342.2382,810.0
342.3051,900.0
342.3721,806.0
342.4391,903.0
342.506,834.0
342.5729,843.0
342.6398,782.0
342.7068,877.0
342.7737,777.0
342.8406,869.0
342.9076,833.0
342.9745,921.0
343.0414,824.0
343.1083,902.0
343.1752,806.0
343.2421,884.0
343.309,832.0
343.3759,878.0
343.4428,831.0
343.5097,949.0
343.5766,816.0
343.6434,878.0
343.7104,837.0
343.7772,913.0
343.8441,836.0
343.9109,910.0
343.9778,817.0
344.0447,894.0
344.1116,846.0
344.1784,896.0
344.2453,821.0
344.3121,928.0
344.3789,807.0
344.4458,899.0
344.5127,822.0
344.5795,904.0
344.6463,876.0
344.7131,927.0
344.78,885.0
344.8468,899.0
344.9136,792.0
344.9805,886.0
345.0473,849.0
345.1141,898.0
345.1809,819.0
345.2477,950.0
345.3145,821.0
345.3813,928.0
345.4481,843.0
345.5149,925.0
345.5816,835.0
345.6484,898.0
345.7152,840.0
345.782,961.0
345.8488,836.0
345.9155,881.0
345.9823,853.0
346.049,904.0
346.1158,844.0
346.1826,958.0
346.2493,858.0
346.3161,912.0
346.3828,824.0
346.4496,944.0
346.5163,833.0
346.5831,861.0
346.6498,850.0
346.7165,928.0
346.7832,840.0
346.85,896.0
346.9167,810.0
346.9834,907.0
347.0501,780.0
347.1168,874.0
347.1835,862.0
347.2502,945.0
347.3169,809.0
347.3836,890.0
347.4503,831.0
347.517,907.0
347.5837,822.0
347.6504,908.0
347.717,809.0
347.7837,927.0
347.8504,829.0
347.9171,905.0
347.9837,822.0
348.0504,926.0
348.1171,829.0
348.1837,878.0
348.2504,878.0
348.317,889.0
348.3837,813.0
348.4503,928.0
348.5169,787.0
348.5836,919.0
348.6502,830.0
348.7169,914.0
348.7835,852.0
348.8501,911.0
348.9167,845.0
348.9833,913.0
349.0499,891.0
349.1165,920.0
349.1832,813.0
349.2498,922.0
349.3163,850.0
349.3829,907.0
349.4495,810.0
349.5161,912.0
349.5827,851.0
349.6493,943.0
349.7159,779.0
349.7824,943.0
349.849,832.0
349.9156,897.0
349.9821,845.0
350.0487,889.0
350.1153,861.0
350.1818,918.0
350.2484,840.0
350.3149,950.0
350.3814,848.0
350.448,898.0
350.5146,819.0
350.5811,930.0
350.6476,875.0
350.7141,934.0
350.7807,873.0
350.8472,929.0
350.9137,839.0
350.9802,925.0
351.0467,847.0
351.1132,914.0
351.1797,832.0
351.2462,923.0
351.3127,816.0
351.3792,945.0
351.4457,841.0
351.5122,926.0
351.5787,899.0
351.6451,948.0
351.7116,862.0
351.7781,932.0
351.8446,865.0
351.911,913.0
351.9775,822.0
352.044,969.0
352.1104,882.0
352.1769,990.0
352.2433,872.0
352.3098,937.0
352.3762,858.0
352.4427,943.0
352.5091,825.0
352.5755,930.0
352.642,846.0
352.7084,999.0
352.7748,929.0
352.8412,990.0
352.9077,885.0
352.9741,997.0
353.0405,869.0
353.1068,954.0
353.1732,867.0
353.2396,1004.0
353.306,886.0
353.3724,944.0
353.4388,885.0
353.5052,951.0
353.5716,864.0
353.638,951.0
353.7043,902.0
353.7707,1004.0
353.8371,899.0
353.9034,968.0
353.9698,907.0
354.0362,971.0
354.1025,926.0
354.1689,1029.0
354.2352,900.0
354.3016,1011.0
354.3679,929.0
354.4342,991.0
354.5005,908.0
354.5669,1000.0
354.6332,921.0
354.6996,1026.0
354.7659,939.0
354.8322,952.0
354.8985,922.0
354.9648,998.0
355.0311,919.0
355.0974,1009.0
355.1637,934.0
355.23,1011.0
355.2963,915.0
355.3625,997.0
355.4289,920.0
355.4952,995.0
355.5614,853.0
355.6277,1001.0
355.694,956.0
355.7603,962.0
355.8265,855.0
355.8928,984.0
355.959,888.0
356.0253,1002.0
356.0916,897.0
356.1578,1041.0
356.224,880.0
356.2903,974.0
356.3565,915.0
356.4228,978.0
356.489,852.0
356.5552,948.0
356.6214,859.0
356.6876,935.0
356.7539,921.0
356.8201,984.0
356.8863,852.0
356.9525,955.0
357.0187,819.0
357.0849,958.0
357.1511,864.0
357.2173,932.0
357.2835,861.0
357.3497,959.0
357.4158,917.0
357.482,982.0
357.5482,890.0
357.6144,974.0
357.6805,909.0
357.7467,980.0
357.8128,881.0
357.879,1013.0
357.9452,917.0
358.0114,1056.0
358.0775,1010.0
358.1436,1076.0
358.2097,1022.0
358.2759,1176.0
358.342,1116.0
358.4082,1181.0
358.4743,1116.0
358.5404,1181.0
358.6065,1016.0
358.6726,1036.0
358.7387,916.0
358.8049,1064.0
358.871,970.0
358.9371,1076.0
359.0032,958.0
359.0693,976.0
359.1353,836.0
359.2014,893.0
359.2676,836.0
359.3336,907.0
359.3997,786.0
359.4658,902.0
359.5318,824.0
359.5979,898.0
359.664,789.0
359.7301,889.0
359.7961,855.0
359.8622,940.0
359.9282,823.0
359.9943,918.0
360.0603,818.0
360.1264,903.0
360.1924,850.0
360.2585,903.0
360.3244,821.0
360.3905,891.0
360.4565,785.0
360.5225,885.0
360.5885,843.0
360.6546,908.0
360.7206,787.0
360.7866,940.0
360.8526,824.0
360.9185,881.0
360.9846,836.0
361.0506,915.0
361.1165,792.0
361.1825,870.0
361.2485,806.0
361.3145,934.0
361.3805,813.0
361.4465,906.0
361.5124,793.0
361.5784,879.0
361.6443,755.0
361.7103,930.0
361.7762,801.0
361.8422,934.0
361.9082,817.0
361.9741,851.0
362.04,815.0
362.106,898.0
362.1719,845.0
362.2379,876.0
362.3038,839.0
362.3697,913.0
362.4356,803.0
362.5015,932.0
362.5675,854.0
362.6334,901.0
362.6993,842.0
362.7652,925.0
362.8311,808.0
362.8969,903.0
362.9629,780.0
363.0287,917.0
363.0947,842.0
363.1605,920.0
363.2264,837.0
363.2923,906.0
363.3582,832.0
363.424,909.0
363.4899,782.0
363.5557,924.0
363.6216,809.0
363.6874,932.0
363.7533,822.0
363.8191,903.0
363.885,812.0
363.9508,908.0
364.0167,772.0
364.0825,933.0
364.1483,837.0
364.2142,916.0
364.28,802.0
364.3458,894.0
364.4116,802.0
364.4774,866.0
364.5432,826.0
364.609,887.0
364.6748,799.0
364.7406,955.0
364.8065,831.0
364.8722,911.0
364.938,847.0
365.0038,899.0
365.0696,851.0
365.1354,929.0
365.2011,781.0
365.2669,937.0
365.3326,763.0
365.3984,909.0
365.4642,836.0
365.5299,946.0
365.5957,794.0
365.6614,919.0
365.7272,836.0
365.7929,908.0
365.8587,813.0
365.9244,935.0
365.9902,823.0
366.0559,882.0
366.1216,842.0
366.1873,882.0
366.253,823.0
366.3188,923.0
366.3845,883.0
366.4502,927.0
366.5159,807.0
366.5816,885.0
366.6473,825.0
366.713,881.0
366.7787,813.0
366.8444,919.0
366.91,846.0
366.9757,902.0
367.0414,812.0
367.1071,896.0
367.1727,789.0
367.2384,905.0
367.3041,837.0
367.3697,892.0
367.4354,776.0
367.501,896.0
367.5667,766.0
367.6323,898.0
367.698,826.0
367.7636,886.0
367.8292,790.0
367.8948,883.0
367.9605,755.0
368.0261,881.0
368.0918,761.0
368.1573,909.0
368.223,779.0
368.2885,865.0
368.3542,792.0
368.4198,856.0
368.4854,796.0
368.551,873.0
368.6165,720.0
368.6821,914.0
368.7477,746.0
368.8133,874.0
368.8789,798.0
368.9445,898.0
369.01,765.0
369.0756,885.0
369.1411,797.0
369.2067,847.0
369.2723,763.0
369.3379,866.0
369.4034,762.0
369.4689,860.0
369.5345,769.0
369.6,849.0
369.6656,757.0
369.7311,843.0
369.7966,770.0
369.8622,892.0
369.9277,774.0
369.9932,842.0
370.0587,823.0
370.1242,853.0
370.1897,776.0
370.2552,861.0
370.3207,751.0
370.3862,851.0
370.4517,800.0
370.5172,876.0
370.5827,804.0
370.6482,897.0
370.7136,745.0
370.7791,840.0
370.8446,798.0
370.9101,892.0
370.9756,732.0
371.041,880.0
371.1064,822.0
371.1719,893.0
371.2373,824.0
371.3028,906.0
371.3683,786.0
371.4337,895.0
371.4991,796.0
371.5646,872.0
371.63,777.0
371.6954,913.0
371.7608,805.0
371.8263,868.0
371.8917,806.0
371.9571,884.0
372.0225,800.0
372.0879,902.0
372.1533,794.0
372.2187,891.0
372.2841,812.0
372.3495,886.0
372.4149,819.0
372.4803,885.0
372.5457,809.0
372.611,906.0
372.6764,771.0
372.7418,899.0
372.8071,856.0
372.8725,908.0
372.9379,849.0
373.0032,893.0
373.0686,837.0
373.1339,890.0
373.1992,806.0
373.2646,894.0
373.3299,812.0
373.3953,918.0
373.4606,815.0
373.5259,987.0
373.5912,833.0
373.6566,896.0
373.7219,829.0
373.7872,887.0
373.8525,839.0
373.9178,926.0
373.9831,840.0
374.0484,902.0
374.1137,853.0
374.179,933.0
374.2443,829.0
374.3096,980.0
374.3749,833.0
374.4401,914.0
374.5054,850.0
374.5706,892.0
374.636,840.0
374.7012,936.0
374.7665,877.0
374.8318,915.0
374.897,846.0
374.9622,920.0
375.0275,836.0
375.0927,904.0
375.158,805.0
375.2232,897.0
375.2885,848.0
375.3537,940.0
375.4189,820.0
375.4841,906.0
375.5493,832.0
375.6145,942.0
375.6797,832.0
375.745,962.0
375.8101,807.0
375.8754,896.0
375.9406,857.0
376.0057,934.0
376.071,813.0
376.1361,901.0
376.2013,838.0
376.2665,928.0
376.3317,841.0
376.3969,922.0
376.462,852.0
376.5272,997.0
376.5923,866.0
376.6575,954.0
376.7226,827.0
376.7878,938.0
376.8529,802.0
376.9181,961.0
376.9832,871.0
377.0483,893.0
377.1135,837.0
377.1786,953.0
377.2437,874.0
377.3089,943.0
377.374,920.0
377.4391,930.0
377.5042,890.0
377.5693,899.0
377.6344,879.0
377.6995,962.0
377.7646,907.0
377.8297,955.0
377.8948,871.0
377.9599,959.0
378.025,879.0
378.09,973.0
378.1551,881.0
378.2202,939.0
378.2852,875.0
378.3503,945.0
378.4154,902.0
378.4804,1020.0
378.5455,883.0
378.6105,937.0
378.6755,928.0
378.7406,937.0
378.8057,930.0
378.8707,939.0
378.9357,922.0
379.0008,988.0
379.0658,890.0
379.1308,1031.0
379.1958,935.0
379.2609,991.0
379.3259,906.0
379.3908,995.0
379.4558,955.0
379.5208,1005.0
379.5858,981.0
379.6509,1043.0
379.7159,969.0
379.7808,1003.0
379.8458,938.0
379.9108,1056.0
379.9758,941.0
380.0407,1048.0
380.1057,963.0
380.1707,1065.0
380.2356,1016.0
380.3006,1112.0
380.3655,996.0
380.4305,1065.0
380.4955,954.0
380.5604,1126.0
380.6253,996.0
380.6902,1070.0
380.7552,1010.0
380.8201,1139.0
380.885,983.0
380.95,1072.0
381.0149,1037.0
381.0798,1151.0
381.1447,999.0
381.2096,1153.0
381.2745,1034.0
381.3394,1114.0
381.4043,1125.0
381.4692,1153.0
381.5341,1104.0
381.5989,1139.0
381.6638,1051.0
381.7287,1176.0
381.7936,1022.0
381.8585,1190.0
381.9233,1045.0
381.9882,1217.0
382.053,1146.0
382.1179,1191.0
382.1828,1123.0
382.2476,1260.0
382.3124,1146.0
382.3773,1209.0
382.4421,1173.0
382.507,1223.0
382.5718,1116.0
382.6366,1167.0
382.7014,1102.0
382.7663,1246.0
382.8311,1099.0
382.8959,1244.0
382.9607,1157.0
383.0255,1213.0
383.0903,1137.0
383.1551,1275.0
383.2199,1170.0
383.2847,1210.0
383.3495,1146.0
383.4143,1292.0
383.479,1147.0
383.5438,1261.0
383.6086,1165.0
383.6734,1237.0
383.7381,1186.0
383.8029,1301.0
383.8676,1226.0
383.9324,1294.0
383.9972,1158.0
384.0619,1321.0
384.1266,1302.0
384.1914,1297.0
384.2562,1191.0
384.3209,1241.0
384.3856,1240.0
384.4503,1349.0
384.515,1298.0
384.5797,1381.0
384.6445,1360.0
384.7092,1468.0
384.7739,1370.0
384.8386,1597.0
384.9033,1530.0
384.968,1648.0
385.0327,1522.0
385.0974,1525.0
385.162,1384.0
385.2267,1483.0
385.2914,1500.0
385.3561,1615.0
385.4208,1492.0
385.4854,1432.0
385.5501,1367.0
385.6147,1436.0
385.6794,1389.0
385.7441,1464.0
385.8087,1482.0
385.8734,1553.0
385.938,1560.0
386.0027,1710.0
386.0673,1734.0
386.1319,1669.0
386.1966,1388.0
386.2612,1390.0
386.3258,1229.0
386.3904,1353.0
386.455,1260.0
386.5196,1448.0
386.5843,1403.0
386.6489,1546.0
386.7135,1542.0
386.778,1600.0
386.8426,1668.0
386.9072,1787.0
386.9718,1899.0
387.0364,2043.0
387.101,1774.0
387.1655,1404.0
387.2301,1221.0
387.2946,1239.0
387.3593,1163.0
387.4238,1247.0
387.4884,1188.0
387.5529,1310.0
387.6175,1261.0
387.682,1411.0
387.7466,1395.0
387.8111,1630.0
387.8756,1561.0
387.9402,1758.0
388.0047,1845.0
388.0692,2061.0
388.1337,2137.0
388.1982,2484.0
388.2628,2225.0
388.3272,1618.0
388.3918,1120.0
388.4563,1080.0
388.5208,910.0
388.5852,988.0
388.6497,897.0
388.7142,906.0
388.7787,856.0
388.8432,953.0
388.9077,860.0
388.9721,910.0
389.0366,849.0
389.1011,948.0
389.1655,862.0
389.23,940.0
389.2944,857.0
389.3589,934.0
389.4233,856.0
389.4878,907.0
389.5522,896.0
389.6167,942.0
389.6811,839.0
389.7455,932.0
389.8099,863.0
389.8744,910.0
389.9388,859.0
390.0032,971.0
390.0676,830.0
390.132,943.0
390.1964,863.0
390.2608,911.0
390.3252,881.0
390.3896,905.0
390.454,843.0
390.5184,867.0
390.5827,835.0
390.6471,902.0
390.7115,850.0
390.7759,991.0
390.8402,871.0
390.9046,957.0
390.9689,901.0
391.0333,909.0
391.0977,871.0
391.162,955.0
391.2264,846.0
391.2907,942.0
391.355,948.0
391.4193,919.0
391.4837,867.0
391.548,963.0
391.6123,875.0
391.6767,938.0
391.741,841.0
391.8053,1013.0
391.8696,855.0
391.9339,949.0
391.9982,845.0
392.0625,954.0
392.1268,922.0
392.1911,955.0
392.2553,846.0
392.3196,956.0
392.3839,877.0
392.4482,917.0
392.5125,901.0
392.5767,969.0
392.641,908.0
392.7053,918.0
392.7695,836.0
392.8338,1030.0
392.898,918.0
392.9622,936.0
393.0265,887.0
393.0908,938.0
393.155,917.0
393.2192,993.0
393.2834,938.0
393.3477,975.0
393.4118,895.0
393.476,986.0
393.5403,832.0
393.6045,957.0
393.6687,847.0
393.7329,961.0
393.7971,877.0
393.8613,980.0
393.9255,882.0
393.9897,947.0
394.0539,902.0
394.118,920.0
394.1822,858.0
394.2464,953.0
394.3105,863.0
394.3747,955.0
394.4389,874.0
394.503,979.0
394.5672,882.0
394.6313,929.0
394.6954,863.0
394.7596,929.0
394.8238,805.0
394.8879,939.0
394.952,844.0
395.0161,917.0
395.0803,854.0
395.1444,930.0
395.2085,827.0
395.2726,936.0
395.3367,840.0
395.4008,925.0
395.4649,833.0
395.529,905.0
395.5931,822.0
395.6572,920.0
395.7213,820.0
395.7854,938.0
395.8495,828.0
395.9135,919.0
395.9776,838.0
396.0417,916.0
396.1057,851.0
396.1698,908.0
396.2339,823.0
396.2979,927.0
396.362,870.0
396.426,935.0
396.4901,862.0
396.5541,901.0
396.6181,841.0
396.6821,877.0
396.7462,845.0
396.8102,977.0
396.8743,842.0
396.9383,946.0
397.0023,840.0
397.0662,858.0
397.1302,862.0
397.1943,883.0
397.2583,815.0
397.3223,852.0
397.3862,835.0
397.4502,919.0
397.5142,815.0
397.5782,941.0
397.6422,796.0
397.7061,859.0
397.7701,833.0
397.8341,911.0
397.898,838.0
397.962,932.0
398.0259,833.0
398.0899,904.0
398.1538,831.0
398.2178,887.0
398.2817,856.0
398.3456,960.0
398.4096,802.0
398.4735,911.0
398.5374,843.0
398.6013,956.0
398.6653,866.0
398.7292,921.0
398.7931,859.0
398.857,939.0
398.9209,856.0
398.9848,945.0
399.0487,864.0
399.1125,951.0
399.1765,899.0
399.2404,924.0
399.3042,838.0
399.3681,966.0
399.432,817.0
399.4958,973.0
399.5597,872.0
399.6236,977.0
399.6875,899.0
399.7513,960.0
399.8152,926.0
399.879,964.0
399.9428,824.0
400.0067,981.0
400.0705,850.0
400.1343,985.0
400.1982,872.0
400.262,962.0
400.3258,914.0
400.3896,945.0
400.4534,868.0
400.5172,916.0
400.581,849.0
400.6448,923.0
400.7086,834.0
400.7724,926.0
400.8362,898.0
400.9,988.0
400.9638,841.0
401.0276,963.0
401.0913,901.0
401.1551,967.0
401.2189,880.0
401.2826,960.0
401.3464,839.0
401.4102,968.0
401.4739,861.0
401.5376,950.0
401.6014,890.0
401.6651,951.0
401.7289,864.0
401.7926,1006.0
401.8564,885.0
401.92,957.0
401.9838,891.0
402.0475,956.0
402.1112,901.0
402.175,1004.0
402.2386,838.0
402.3023,921.0
402.366,860.0
402.4297,998.0
402.4934,918.0
402.5571,949.0
402.6208,936.0
402.6845,962.0
402.7482,843.0
402.8118,935.0
402.8755,882.0
402.9392,978.0
403.0028,913.0
403.0665,977.0
403.1301,901.0
403.1938,943.0
403.2574,893.0
403.3211,994.0
403.3847,882.0
403.4484,990.0
403.512,935.0
403.5756,980.0
403.6393,929.0
403.7029,919.0
403.7665,907.0
403.8301,979.0
403.8937,892.0
403.9573,966.0
404.0209,881.0
404.0845,991.0
404.1481,853.0
404.2117,980.0
404.2753,879.0
404.3389,958.0
404.4024,913.0
404.466,968.0
404.5296,924.0
404.5932,977.0
404.6567,923.0
404.7203,976.0
404.7838,886.0
404.8474,1000.0
404.9109,850.0
404.9745,929.0
405.0381,900.0
405.1016,991.0
405.1651,856.0
405.2286,957.0
405.2922,916.0
405.3557,950.0
405.4193,853.0
405.4828,976.0
405.5462,884.0
405.6097,978.0
405.6733,871.0
405.7368,1008.0
405.8003,902.0
405.8638,956.0
405.9272,897.0
405.9907,943.0
406.0542,892.0
406.1177,979.0
406.1812,880.0
406.2446,960.0
406.3081,877.0
406.3716,1008.0
406.435,943.0
406.4985,946.0
406.562,918.0
406.6254,1034.0
406.6888,876.0
406.7523,993.0
406.8157,831.0
406.8791,971.0
406.9426,901.0
407.006,960.0
407.0694,904.0
407.1328,1075.0
407.1962,963.0
407.2597,1008.0
407.3231,942.0
407.3865,1054.0
407.4499,975.0
407.5133,1037.0
407.5767,988.0
407.64,1023.0
407.7034,917.0
407.7668,1003.0
407.8302,928.0
407.8936,1016.0
407.9569,957.0
408.0203,1002.0
408.0836,965.0
408.147,1016.0
408.2104,958.0
408.2737,1044.0
408.3371,959.0
408.4004,1028.0
408.4637,952.0
408.5271,1037.0
408.5905,964.0
408.6537,1007.0
408.7171,910.0
408.7804,974.0
408.8437,964.0
408.907,1020.0
408.9703,945.0
409.0336,1007.0
409.0969,975.0
409.1602,984.0
409.2235,952.0
409.2868,958.0
409.3501,945.0
409.4134,1033.0
409.4767,930.0
409.5399,1058.0
409.6032,947.0
409.6665,1002.0
409.7297,940.0
409.793,1021.0
409.8563,919.0
409.9195,1033.0
409.9827,955.0
410.046,1024.0
410.1092,980.0
410.1725,1061.0
410.2357,1016.0
410.299,1017.0
410.3622,972.0
410.4254,988.0
410.4886,940.0
410.5518,1006.0
410.615,960.0
410.6782,1070.0
410.7414,946.0
410.8046,1022.0
410.8678,931.0
410.931,996.0
410.9942,921.0
411.0574,967.0
411.1205,909.0
411.1837,977.0
411.2469,890.0
411.3101,982.0
411.3733,885.0
411.4364,1048.0
411.4995,886.0
411.5627,989.0
411.6259,919.0
411.689,1022.0
411.7521,910.0
411.8153,995.0
411.8784,978.0
411.9415,977.0
412.0046,927.0
412.0678,981.0
412.1309,883.0
412.194,953.0
412.2571,918.0
412.3203,1001.0
412.3833,888.0
412.4464,1015.0
412.5096,886.0
412.5727,939.0
412.6357,898.0
412.6988,992.0
412.7619,903.0
412.825,993.0
412.8881,891.0
412.9511,983.0
413.0142,900.0
413.0772,963.0
413.1403,876.0
413.2033,955.0
413.2664,943.0
413.3294,980.0
413.3925,915.0
413.4555,968.0
413.5186,917.0
413.5816,1005.0
413.6446,856.0
413.7076,981.0
413.7707,850.0
413.8337,990.0
413.8967,860.0
413.9597,944.0
414.0227,906.0
414.0857,1017.0
414.1487,879.0
414.2117,984.0
414.2747,888.0
414.3376,1027.0
414.4006,902.0
414.4636,1007.0
414.5266,920.0
414.5896,992.0
414.6525,955.0
414.7155,1019.0
414.7784,963.0
414.8414,1004.0
414.9044,1014.0
414.9673,1037.0
415.0303,975.0
415.0932,1091.0
415.1561,996.0
415.2191,1069.0
415.282,942.0
415.3449,981.0
415.4079,919.0
415.4708,990.0
415.5336,928.0
415.5966,1009.0
415.6595,962.0
415.7224,1087.0
415.7853,933.0
415.8482,988.0
415.9111,916.0
415.9739,973.0
416.0368,959.0
416.0997,1072.0
416.1626,948.0
416.2255,952.0
416.2883,970.0
416.3512,1037.0
416.414,984.0
416.4769,1058.0
416.5397,1014.0
416.6026,1065.0
416.6654,986.0
416.7283,1042.0
416.7911,965.0
416.8539,1027.0
416.9167,974.0
416.9796,1041.0
417.0424,899.0
417.1052,1004.0
417.168,959.0
417.2308,1041.0
417.2936,916.0
417.3564,1047.0
417.4193,928.0
417.4821,1007.0
417.5448,874.0
417.6076,1040.0
417.6704,937.0
417.7332,1034.0
417.796,943.0
417.8587,1023.0
417.9215,996.0
417.9842,1074.0
418.047,987.0
418.1098,987.0
418.1725,939.0
418.2353,982.0
418.298,827.0
418.3607,987.0
418.4235,907.0
418.4862,1001.0
418.549,897.0
418.6117,1013.0
418.6744,907.0
418.7371,975.0
418.7998,894.0
418.8625,968.0
418.9252,890.0
418.9879,991.0
419.0507,909.0
419.1133,1011.0
419.176,892.0
419.2387,997.0
419.3014,929.0
419.3641,1074.0
419.4268,1011.0
419.4894,1044.0
419.5521,970.0
419.6147,1070.0
419.6774,939.0
419.7401,983.0
419.8027,878.0
419.8654,953.0
419.928,869.0
419.9906,981.0
420.0533,917.0
420.1159,925.0
420.1785,908.0
420.2411,956.0
420.3038,874.0
420.3664,970.0
420.429,862.0
420.4916,958.0
420.5542,872.0
420.6168,959.0
420.6794,889.0
420.742,965.0
420.8046,909.0
420.8672,966.0
420.9297,883.0
420.9923,1014.0
421.0549,908.0
421.1175,998.0
421.18,875.0
421.2426,1001.0
421.3052,909.0
421.3677,984.0
421.4303,939.0
421.4928,1023.0
421.5554,862.0
421.6179,946.0
421.6804,880.0
421.743,909.0
421.8055,885.0
421.868,891.0
421.9305,805.0
421.993,914.0
422.0556,808.0
422.1181,890.0
422.1806,821.0
422.2431,920.0
422.3055,813.0
422.368,916.0
422.4305,861.0
422.493,874.0
422.5555,842.0
422.618,938.0
422.6805,816.0
422.7429,924.0
422.8054,921.0
422.8679,865.0
422.9303,841.0
422.9928,922.0
423.0552,864.0
423.1177,948.0
423.1801,856.0
423.2425,972.0
423.305,891.0
423.3674,924.0
423.4298,884.0
423.4922,940.0
423.5547,852.0
423.617,959.0
423.6795,828.0
423.7419,954.0
423.8043,858.0
423.8667,940.0
423.9291,909.0
423.9915,960.0
424.0538,881.0
424.1163,937.0
424.1786,840.0
424.241,938.0
424.3034,886.0
424.3658,996.0
424.4281,870.0
424.4905,990.0
424.5529,909.0
424.6152,1011.0
424.6775,900.0
424.7399,999.0
424.8022,911.0
424.8646,1020.0
424.9269,895.0
424.9892,960.0
425.0515,951.0
425.1139,1029.0
425.1762,890.0
425.2385,931.0
425.3008,956.0
425.3631,989.0
425.4254,938.0
425.4877,1011.0
425.55,935.0
425.6123,1020.0
425.6746,956.0
425.7369,1007.0
425.7992,943.0
425.8614,1003.0
425.9237,934.0
425.9859,1002.0
426.0482,981.0
426.1105,1025.0
426.1727,907.0
426.235,959.0
426.2972,939.0
426.3595,1024.0
426.4217,868.0
426.4839,1037.0
426.5462,961.0
426.6084,1027.0
426.6706,974.0
426.7328,1044.0
426.795,954.0
426.8573,1012.0
426.9195,937.0
426.9817,969.0
427.0439,956.0
427.1061,1031.0
427.1683,964.0
427.2305,996.0
427.2927,926.0
427.3549,966.0
427.417,905.0
427.4792,988.0
427.5413,886.0
427.6035,993.0
427.6657,897.0
427.7278,992.0
427.79,940.0
427.8521,1017.0
427.9142,902.0
427.9764,952.0
428.0386,848.0
428.1007,994.0
428.1628,914.0
428.2249,969.0
428.287,922.0
428.3492,1012.0
428.4113,879.0
428.4734,961.0
428.5355,882.0
428.5976,935.0
428.6597,934.0
428.7218,1001.0
428.7839,862.0
428.846,981.0
428.9081,875.0
428.9702,979.0
429.0322,846.0
429.0943,949.0
429.1563,874.0
429.2184,963.0
429.2805,921.0
429.3425,935.0
429.4046,926.0
429.4666,935.0
429.5287,881.0
429.5908,950.0
429.6528,883.0
429.7148,977.0
429.7768,861.0
429.8388,908.0
429.9008,829.0
429.9629,903.0
430.0249,848.0
430.0869,944.0
430.1489,886.0
430.2109,952.0
430.2729,849.0
430.3349,886.0
430.3969,852.0
430.4589,913.0
430.5208,846.0
430.5828,930.0
430.6448,843.0
430.7068,906.0
430.7688,838.0
430.8307,917.0
430.8926,849.0
430.9546,907.0
431.0165,827.0
431.0785,875.0
431.1404,828.0
431.2024,968.0
431.2643,847.0
431.3262,885.0
431.3881,835.0
431.4501,874.0
431.512,814.0
431.5739,919.0
431.6358,770.0
431.6977,883.0
431.7596,807.0
431.8215,895.0
431.8834,847.0
431.9453,905.0
432.0072,841.0
432.0691,899.0
432.131,811.0
432.1928,929.0
432.2547,764.0
432.3165,866.0
432.3784,781.0
432.4403,889.0
432.5021,816.0
432.564,860.0
432.6258,759.0
432.6876,894.0
432.7495,808.0
432.8113,878.0
432.8732,788.0
432.935,859.0
432.9968,783.0
433.0586,866.0
433.1204,819.0
433.1823,862.0
433.2441,807.0
433.3059,857.0
433.3677,833.0
433.4295,907.0
433.4912,821.0
433.5531,915.0
433.6148,816.0
433.6766,906.0
433.7384,803.0
433.8001,846.0
433.8619,801.0
433.9237,918.0
433.9854,793.0
434.0472,849.0
434.1089,807.0
434.1707,842.0
434.2324,873.0
434.2942,904.0
434.3559,802.0
434.4177,921.0
434.4794,815.0
434.5411,910.0
434.6028,846.0
434.6645,869.0
434.7263,812.0
434.788,919.0
434.8497,871.0
434.9113,869.0
434.973,776.0
435.0347,920.0
435.0965,819.0
435.1581,897.0
435.2198,856.0
435.2815,906.0
435.3431,824.0
435.4048,883.0
435.4665,818.0
435.5282,912.0
435.5898,823.0
435.6515,844.0
435.7131,847.0
435.7747,903.0
435.8363,808.0
435.898,875.0
435.9597,812.0
436.0213,885.0
436.0829,837.0
436.1445,958.0
436.2061,821.0
436.2678,906.0
436.3294,872.0
436.391,1020.0
436.4525,865.0
436.5141,870.0
436.5757,855.0
436.6373,918.0
436.6989,778.0
436.7605,932.0
436.8221,839.0
436.8836,887.0
436.9452,867.0
437.0067,917.0
437.0684,844.0
437.1299,903.0
437.1914,791.0
437.253,907.0
437.3145,828.0
437.3761,938.0
437.4376,745.0
437.4992,881.0
437.5607,843.0
437.6222,852.0
437.6837,813.0
437.7452,890.0
437.8067,856.0
437.8683,881.0
437.9298,840.0
437.9913,876.0
438.0528,831.0
438.1143,904.0
438.1757,810.0
438.2372,898.0
438.2987,824.0
438.3602,925.0
438.4217,820.0
438.4831,895.0
438.5446,785.0
438.6061,860.0
438.6675,816.0
438.729,882.0
438.7904,797.0
438.8519,902.0
438.9133,834.0
438.9747,862.0
439.0362,791.0
439.0976,886.0
439.159,815.0
439.2204,847.0
439.2819,793.0
439.3433,903.0
439.4047,785.0
439.4661,903.0
439.5275,805.0
439.5889,874.0
439.6503,759.0
439.7116,896.0
439.7731,777.0
439.8345,888.0
439.8958,759.0
439.9572,887.0
440.0186,848.0
440.0799,892.0
440.1413,826.0
440.2027,901.0
440.264,779.0
440.3253,904.0
440.3867,810.0
440.448,891.0
440.5093,790.0
440.5707,927.0
440.632,772.0
440.6934,895.0
440.7546,833.0
440.816,889.0
440.8773,837.0
440.9386,920.0
440.9999,815.0
441.0612,874.0
441.1225,848.0
441.1838,856.0
441.2451,780.0
441.3063,901.0
441.3677,843.0
441.429,956.0
441.4902,814.0
441.5515,862.0
441.6127,828.0
441.674,913.0
441.7353,836.0
441.7965,903.0
441.8578,789.0
441.919,854.0
441.9802,840.0
442.0414,894.0
442.1027,809.0
442.164,886.0
442.2252,849.0
442.2864,918.0
442.3476,853.0
442.4088,916.0
442.47,847.0
442.5312,904.0
442.5924,801.0
442.6536,922.0
442.7148,824.0
442.776,919.0
442.8372,788.0
442.8984,878.0
442.9596,807.0
443.0207,912.0
443.0819,817.0
443.143,852.0
443.2042,815.0
443.2653,901.0
443.3265,836.0
443.3877,904.0
443.4488,836.0
443.5099,901.0
443.5711,848.0
443.6322,876.0
443.6934,836.0
443.7545,910.0
443.8156,814.0
443.8767,886.0
443.9378,802.0
443.9989,914.0
444.0601,827.0
444.1212,913.0
444.1822,857.0
444.2433,901.0
444.3044,867.0
444.3654,891.0
444.4265,780.0
444.4877,900.0
444.5487,840.0
444.6098,935.0
444.6708,831.0
444.7319,944.0
444.7929,830.0
444.854,918.0
444.915,867.0
444.9761,923.0
445.0371,778.0
445.0981,913.0
445.1592,813.0
445.2203,917.0
445.2812,823.0
445.3423,919.0
445.4033,810.0
445.4643,920.0
445.5253,816.0
445.5862,933.0
445.6473,813.0
445.7083,901.0
445.7693,826.0
445.8303,932.0
445.8912,840.0
445.9522,868.0
446.0132,816.0
446.0742,883.0
446.1352,798.0
446.1961,918.0
446.257,840.0
446.318,858.0
446.379,843.0
446.4399,885.0
446.5009,837.0
446.5618,912.0
446.6227,789.0
446.6836,885.0
446.7446,824.0
446.8055,844.0
446.8664,844.0
446.9273,888.0
446.9883,842.0
447.0491,834.0
447.11,800.0
447.171,878.0
447.2319,786.0
447.2927,901.0
447.3536,771.0
447.4145,864.0
447.4753,773.0
447.5363,813.0
447.5971,772.0
447.658,859.0
447.7188,794.0
447.7797,854.0
447.8405,740.0
447.9014,832.0
447.9623,743.0
448.0231,815.0
448.0839,747.0
448.1447,838.0
448.2056,762.0
448.2664,863.0
448.3272,773.0
448.3881,865.0
448.4489,767.0
448.5096,863.0
448.5705,767.0
448.6312,830.0
448.6921,778.0
448.7529,869.0
448.8137,755.0
448.8744,849.0
448.9352,759.0
448.9959,849.0
449.0567,804.0
449.1175,837.0
449.1783,760.0
449.239,841.0
449.2998,762.0
449.3605,844.0
449.4213,732.0
449.4821,846.0
449.5428,786.0
449.6035,811.0
449.6642,772.0
449.725,812.0
449.7857,759.0
449.8464,845.0
449.9071,745.0
449.9679,826.0
450.0285,762.0
450.0892,865.0
450.1499,766.0
450.2106,792.0
450.2714,721.0
450.332,809.0
450.3927,722.0
450.4534,821.0
450.514,722.0
450.5747,786.0
450.6354,776.0
450.696,851.0
450.7567,746.0
450.8174,795.0
450.878,745.0
450.9386,828.0
450.9993,737.0
451.0599,853.0
451.1206,743.0
451.1812,822.0
451.2418,718.0
451.3024,798.0
451.363,732.0
451.4236,783.0
451.4843,735.0
451.5449,841.0
451.6054,775.0
451.666,804.0
451.7267,749.0
451.7873,811.0
451.8478,712.0
451.9084,843.0
451.969,738.0
452.0295,822.0
452.0901,799.0
452.1507,832.0
452.2113,693.0
452.2718,809.0
452.3324,705.0
452.3929,783.0
452.4534,716.0
452.5139,792.0
452.5745,732.0
452.635,882.0
452.6956,777.0
452.7561,798.0
452.8166,786.0
452.8771,846.0
452.9377,739.0
452.9981,800.0
453.0586,731.0
453.1191,803.0
453.1796,703.0
453.2401,825.0
453.3006,758.0
453.3611,777.0
453.4216,743.0
453.4821,817.0
453.5425,744.0
453.6029,829.0
453.6634,758.0
453.7239,801.0
453.7844,802.0
453.8448,854.0
453.9052,740.0
453.9656,841.0
454.0261,746.0
454.0866,869.0
454.147,707.0
454.2074,848.0
454.2678,742.0
454.3282,813.0
454.3886,754.0
454.449,831.0
454.5095,756.0
454.5699,857.0
454.6302,774.0
454.6906,821.0
454.751,725.0
454.8114,908.0
454.8718,778.0
454.9322,845.0
454.9925,732.0
455.0529,834.0
455.1133,780.0
455.1736,867.0
455.234,774.0
455.2943,864.0
455.3547,811.0
455.415,878.0
455.4753,789.0
455.5357,849.0
455.5959,724.0
455.6563,857.0
455.7167,757.0
455.777,862.0
455.8373,798.0
455.8976,820.0
455.9579,762.0
456.0182,842.0
456.0785,727.0
456.1388,861.0
456.1991,800.0
456.2593,851.0
456.3196,755.0
456.3799,867.0
456.4402,806.0
456.5005,844.0
456.5607,743.0
456.621,767.0
456.6812,755.0
456.7414,831.0
456.8018,738.0
456.862,805.0
456.9222,749.0
456.9825,851.0
457.0426,731.0
457.1028,829.0
457.1631,744.0
457.2234,882.0
457.2835,727.0
457.3438,871.0
457.404,764.0
457.4641,856.0
457.5244,781.0
457.5846,887.0
457.6447,777.0
457.7049,824.0
457.7651,782.0
457.8253,844.0
457.8854,763.0
457.9456,774.0
458.0058,696.0
458.0659,815.0
458.1261,738.0
458.1862,865.0
458.2464,773.0
458.3066,838.0
458.3667,749.0
458.4268,859.0
458.4869,788.0
458.5471,722.0
458.6072,601.0
458.6674,696.0
458.7274,593.0
458.7876,748.0
458.8477,613.0
458.9077,696.0
458.9679,614.0
459.0279,698.0
459.0881,594.0
459.1481,694.0
459.2082,608.0
459.2683,715.0
459.3283,611.0
459.3884,711.0
459.4485,627.0
459.5086,678.0
459.5686,593.0
459.6287,663.0
459.6887,615.0
459.7487,685.0
459.8088,657.0
459.8688,648.0
459.9289,597.0
459.9889,711.0
460.0489,612.0
460.1089,754.0
460.1689,626.0
460.229,686.0
460.289,589.0
