Laser settings:
	Diode frequency:	5 Hz
	Pulses fired:		105
	Q-Switch blanking:	5
	Q-Switch delay:		201 μs
	Q-Switch presync:	1 μs
Spectrometer settings:
	Integration time:	0.0090 ms
	Integration delay:	0.000 ns
	Averaging:		1
	Trigger mode:		External
	Dynamic Dark Correction:		Disabled


wavelength,intensity
184.9409,655.0
185.0142,592.0
185.0875,671.0
185.1608,588.0
185.2341,654.0
185.3074,593.0
185.3807,676.0
185.454,637.0
185.5273,682.0
185.6006,623.0
185.6739,668.0
185.7472,604.0
185.8205,696.0
185.8938,629.0
185.9671,693.0
186.0403,606.0
186.1136,668.0
186.1869,646.0
186.2601,700.0
186.3334,578.0
186.4067,673.0
186.4799,598.0
186.5532,687.0
186.6265,614.0
186.6997,705.0
186.773,628.0
186.8462,681.0
186.9195,601.0
186.9928,691.0
187.066,628.0
187.1392,704.0
187.2125,632.0
187.2857,698.0
187.3589,641.0
187.4322,704.0
187.5054,638.0
187.5786,698.0
187.6519,621.0
187.7251,722.0
187.7983,648.0
187.8715,725.0
187.9447,645.0
188.018,724.0
188.0912,665.0
188.1644,686.0
188.2376,620.0
188.3108,708.0
188.384,628.0
188.4572,688.0
188.5304,671.0
188.6036,716.0
188.6768,618.0
188.75,722.0
188.8232,640.0
188.8963,669.0
188.9695,622.0
189.0427,735.0
189.1159,651.0
189.1891,728.0
189.2623,674.0
189.3354,719.0
189.4086,697.0
189.4818,731.0
189.5549,680.0
189.6281,739.0
189.7012,659.0
189.7744,704.0
189.8476,635.0
189.9207,710.0
189.9939,673.0
190.067,691.0
190.1402,660.0
190.2133,731.0
190.2864,633.0
190.3596,778.0
190.4327,667.0
190.5059,728.0
190.579,687.0
190.6521,700.0
190.7253,633.0
190.7984,729.0
190.8715,674.0
190.9446,719.0
191.0177,654.0
191.0908,698.0
191.164,664.0
191.2371,757.0
191.3102,671.0
191.3833,719.0
191.4564,639.0
191.5295,774.0
191.6026,642.0
191.6757,771.0
191.7488,661.0
191.8219,761.0
191.895,705.0
191.968,729.0
192.0411,687.0
192.1142,738.0
192.1873,654.0
192.2604,792.0
192.3334,674.0
192.4065,769.0
192.4796,709.0
192.5527,753.0
192.6257,652.0
192.6988,747.0
192.7718,752.0
192.8449,784.0
192.918,770.0
192.991,912.0
193.064,913.0
193.1371,910.0
193.2101,890.0
193.2832,887.0
193.3562,808.0
193.4292,828.0
193.5023,717.0
193.5753,771.0
193.6484,741.0
193.7214,816.0
193.7944,704.0
193.8674,784.0
193.9405,675.0
194.0135,792.0
194.0865,662.0
194.1595,788.0
194.2325,714.0
194.3055,789.0
194.3785,706.0
194.4515,795.0
194.5246,686.0
194.5975,775.0
194.6705,694.0
194.7435,727.0
194.8165,693.0
194.8895,773.0
194.9625,697.0
195.0355,725.0
195.1085,693.0
195.1815,772.0
195.2544,686.0
195.3274,762.0
195.4004,668.0
195.4734,754.0
195.5463,668.0
195.6193,823.0
195.6923,685.0
195.7652,760.0
195.8382,713.0
195.9111,792.0
195.9841,689.0
196.057,782.0
196.13,728.0
196.2029,790.0
196.2759,686.0
196.3488,766.0
196.4218,697.0
196.4947,772.0
196.5676,693.0
196.6406,803.0
196.7135,695.0
196.7864,762.0
196.8593,704.0
196.9323,796.0
197.0052,739.0
197.0781,791.0
197.151,673.0
197.2239,728.0
197.2969,668.0
197.3697,779.0
197.4427,677.0
197.5156,774.0
197.5885,726.0
197.6614,764.0
197.7343,691.0
197.8072,828.0
197.88,687.0
197.9529,717.0
198.0258,708.0
198.0987,793.0
198.1716,704.0
198.2445,741.0
198.3173,720.0
198.3902,744.0
198.4631,728.0
198.5359,780.0
198.6088,646.0
198.6817,752.0
198.7545,694.0
198.8274,768.0
198.9003,720.0
198.9731,765.0
199.046,694.0
199.1188,757.0
199.1917,690.0
199.2645,790.0
199.3373,690.0
199.4102,757.0
199.483,692.0
199.5559,709.0
199.6287,715.0
199.7015,761.0
199.7744,750.0
199.8472,746.0
199.92,678.0
199.9928,731.0
200.0656,714.0
200.1385,771.0
200.2113,685.0
200.2841,759.0
200.3569,677.0
200.4297,781.0
200.5025,683.0
200.5753,792.0
200.6481,689.0
200.7209,722.0
200.7937,684.0
200.8665,747.0
200.9393,684.0
201.0121,784.0
201.0848,697.0
201.1576,796.0
201.2304,693.0
201.3032,758.0
201.3759,728.0
201.4487,722.0
201.5215,712.0
201.5943,762.0
201.667,679.0
201.7398,754.0
201.8125,677.0
201.8853,758.0
201.958,657.0
202.0308,799.0
202.1035,699.0
202.1763,774.0
202.249,683.0
202.3218,750.0
202.3945,699.0
202.4673,785.0
202.54,717.0
202.6127,771.0
202.6855,681.0
202.7582,775.0
202.8309,686.0
202.9036,740.0
202.9764,703.0
203.0491,784.0
203.1218,697.0
203.1945,757.0
203.2672,722.0
203.3399,777.0
203.4126,676.0
203.4853,778.0
203.558,680.0
203.6307,765.0
203.7034,634.0
203.7761,808.0
203.8488,703.0
203.9215,754.0
203.9942,662.0
204.0669,733.0
204.1395,704.0
204.2122,751.0
204.2849,687.0
204.3576,757.0
204.4302,698.0
204.5029,762.0
204.5756,723.0
204.6482,721.0
204.7209,710.0
204.7935,777.0
204.8662,661.0
204.9389,775.0
205.0115,690.0
205.0842,771.0
205.1568,694.0
205.2294,742.0
205.3021,743.0
205.3747,723.0
205.4474,665.0
205.52,775.0
205.5926,649.0
205.6653,741.0
205.7379,677.0
205.8105,790.0
205.8831,721.0
205.9557,742.0
206.0284,666.0
206.101,750.0
206.1736,701.0
206.2462,740.0
206.3188,683.0
206.3914,765.0
206.464,707.0
206.5366,762.0
206.6092,652.0
206.6818,745.0
206.7544,710.0
206.827,775.0
206.8996,663.0
206.9721,718.0
207.0447,684.0
207.1173,759.0
207.1899,705.0
207.2625,743.0
207.335,693.0
207.4076,764.0
207.4802,687.0
207.5527,752.0
207.6253,711.0
207.6978,756.0
207.7704,708.0
207.843,721.0
207.9155,654.0
207.9881,751.0
208.0606,676.0
208.1331,746.0
208.2057,710.0
208.2782,769.0
208.3508,699.0
208.4233,796.0
208.4958,725.0
208.5684,807.0
208.6409,676.0
208.7134,775.0
208.7859,728.0
208.8584,764.0
208.931,685.0
209.0035,746.0
209.076,679.0
209.1485,802.0
209.221,668.0
209.2935,752.0
209.366,683.0
209.4385,797.0
209.511,689.0
209.5835,780.0
209.656,694.0
209.7285,767.0
209.801,702.0
209.8735,770.0
209.9459,726.0
210.0184,793.0
210.0909,703.0
210.1634,787.0
210.2358,703.0
210.3083,757.0
210.3808,664.0
210.4532,755.0
210.5257,665.0
210.5982,761.0
210.6706,680.0
210.7431,768.0
210.8155,705.0
210.888,720.0
210.9604,666.0
211.0329,714.0
211.1053,638.0
211.1777,712.0
211.2502,672.0
211.3226,713.0
211.3951,693.0
211.4675,755.0
211.5399,670.0
211.6123,752.0
211.6847,666.0
211.7572,778.0
211.8296,685.0
211.902,793.0
211.9744,696.0
212.0468,767.0
212.1192,683.0
212.1917,722.0
212.264,688.0
212.3364,702.0
212.4088,695.0
212.4812,791.0
212.5536,701.0
212.626,772.0
212.6984,697.0
212.7708,753.0
212.8432,709.0
212.9155,788.0
212.9879,702.0
213.0603,768.0
213.1326,708.0
213.205,730.0
213.2774,674.0
213.3498,767.0
213.4221,718.0
213.4945,764.0
213.5668,661.0
213.6392,749.0
213.7115,697.0
213.7839,785.0
213.8562,688.0
213.9286,746.0
214.0009,682.0
214.0732,796.0
214.1456,712.0
214.2179,752.0
214.2903,709.0
214.3626,739.0
214.4349,722.0
214.5072,766.0
214.5796,696.0
214.6519,734.0
214.7242,715.0
214.7965,731.0
214.8688,717.0
214.9411,744.0
215.0134,695.0
215.0857,801.0
215.158,697.0
215.2303,756.0
215.3026,734.0
215.3749,815.0
215.4472,710.0
215.5195,772.0
215.5918,712.0
215.6641,767.0
215.7363,713.0
215.8086,797.0
215.8809,702.0
215.9532,744.0
216.0254,677.0
216.0977,744.0
216.17,692.0
216.2422,831.0
216.3145,694.0
216.3867,792.0
216.459,716.0
216.5313,756.0
216.6035,683.0
216.6758,771.0
216.748,698.0
216.8202,744.0
216.8925,700.0
216.9647,805.0
217.037,689.0
217.1092,765.0
217.1814,700.0
217.2536,790.0
217.3259,702.0
217.3981,770.0
217.4703,690.0
217.5425,774.0
217.6147,719.0
217.687,785.0
217.7592,731.0
217.8314,829.0
217.9035,697.0
217.9758,791.0
218.048,748.0
218.1201,789.0
218.1924,696.0
218.2645,816.0
218.3367,729.0
218.4089,760.0
218.4811,748.0
218.5533,784.0
218.6255,714.0
218.6976,766.0
218.7698,730.0
218.842,792.0
218.9142,736.0
218.9863,785.0
219.0585,727.0
219.1306,807.0
219.2028,746.0
219.2749,784.0
219.3471,742.0
219.4193,789.0
219.4914,719.0
219.5636,799.0
219.6357,758.0
219.7078,811.0
219.78,756.0
219.8521,827.0
219.9242,763.0
219.9964,795.0
220.0685,747.0
220.1406,818.0
220.2128,781.0
220.2849,797.0
220.357,765.0
220.4291,801.0
220.5012,713.0
220.5733,804.0
220.6454,728.0
220.7175,804.0
220.7896,748.0
220.8617,852.0
220.9338,738.0
221.0059,796.0
221.078,744.0
221.1501,786.0
221.2222,724.0
221.2943,827.0
221.3663,724.0
221.4384,802.0
221.5105,743.0
221.5826,780.0
221.6546,735.0
221.7267,814.0
221.7988,749.0
221.8708,841.0
221.9429,756.0
222.015,803.0
222.087,771.0
222.1591,814.0
222.2311,778.0
222.3032,826.0
222.3752,731.0
222.4473,815.0
222.5193,733.0
222.5913,791.0
222.6634,711.0
222.7354,811.0
222.8074,719.0
222.8795,852.0
222.9515,681.0
223.0235,753.0
223.0955,731.0
223.1675,783.0
223.2395,734.0
223.3116,790.0
223.3836,782.0
223.4556,841.0
223.5276,729.0
223.5996,785.0
223.6716,713.0
223.7436,785.0
223.8156,714.0
223.8876,838.0
223.9595,758.0
224.0315,794.0
224.1035,752.0
224.1755,799.0
224.2475,783.0
224.3195,821.0
224.3914,795.0
224.4634,828.0
224.5354,705.0
224.6073,797.0
224.6793,752.0
224.7512,809.0
224.8232,740.0
224.8952,838.0
224.9671,750.0
225.0391,836.0
225.111,780.0
225.1829,824.0
225.2549,763.0
225.3268,831.0
225.3988,768.0
225.4707,824.0
225.5426,796.0
225.6146,847.0
225.6865,773.0
225.7584,862.0
225.8303,790.0
225.9022,810.0
225.9742,799.0
226.0461,840.0
226.118,763.0
226.1899,869.0
226.2618,711.0
226.3337,835.0
226.4056,802.0
226.4775,849.0
226.5494,800.0
226.6213,847.0
226.6932,761.0
226.7651,821.0
226.8369,776.0
226.9088,852.0
226.9807,751.0
227.0526,840.0
227.1245,748.0
227.1963,848.0
227.2682,754.0
227.3401,873.0
227.4119,726.0
227.4838,824.0
227.5556,802.0
227.6275,849.0
227.6993,806.0
227.7712,849.0
227.8431,768.0
227.9149,831.0
227.9867,768.0
228.0586,805.0
228.1304,736.0
228.2023,842.0
228.2741,771.0
228.3459,838.0
228.4177,784.0
228.4896,846.0
228.5614,745.0
228.6332,839.0
228.705,771.0
228.7768,832.0
228.8486,793.0
228.9205,822.0
228.9923,785.0
229.0641,873.0
229.1359,796.0
229.2077,896.0
229.2794,825.0
229.3513,892.0
229.423,894.0
229.4948,1070.0
229.5666,1006.0
229.6384,1146.0
229.7102,1104.0
229.782,1073.0
229.8537,861.0
229.9255,893.0
229.9973,845.0
230.069,866.0
230.1408,716.0
230.2126,848.0
230.2843,726.0
230.3561,838.0
230.4278,717.0
230.4996,814.0
230.5713,706.0
230.6431,855.0
230.7148,733.0
230.7866,818.0
230.8583,739.0
230.93,779.0
231.0018,741.0
231.0735,784.0
231.1452,705.0
231.2169,783.0
231.2887,685.0
231.3604,844.0
231.4321,760.0
231.5038,810.0
231.5755,795.0
231.6472,768.0
231.7189,722.0
231.7906,822.0
231.8624,707.0
231.9341,797.0
232.0057,702.0
232.0774,799.0
232.1491,723.0
232.2208,781.0
232.2925,712.0
232.3642,771.0
232.4359,703.0
232.5075,873.0
232.5792,748.0
232.6509,860.0
232.7225,753.0
232.7942,825.0
232.8659,742.0
232.9375,798.0
233.0092,732.0
233.0809,848.0
233.1525,740.0
233.2242,799.0
233.2958,751.0
233.3675,798.0
233.4391,708.0
233.5107,820.0
233.5824,703.0
233.654,807.0
233.7256,721.0
233.7973,808.0
233.8689,712.0
233.9405,807.0
234.0121,757.0
234.0838,814.0
234.1554,768.0
234.227,844.0
234.2986,727.0
234.3702,802.0
234.4418,709.0
234.5134,820.0
234.585,726.0
234.6566,781.0
234.7282,721.0
234.7998,796.0
234.8714,728.0
234.943,797.0
235.0146,708.0
235.0862,776.0
235.1577,706.0
235.2293,772.0
235.3009,706.0
235.3725,808.0
235.444,732.0
235.5156,809.0
235.5872,722.0
235.6587,821.0
235.7303,768.0
235.8018,818.0
235.8734,746.0
235.9449,817.0
236.0165,738.0
236.088,816.0
236.1596,743.0
236.2311,783.0
236.3026,770.0
236.3742,813.0
236.4457,726.0
236.5172,803.0
236.5887,755.0
236.6603,783.0
236.7318,744.0
236.8033,843.0
236.8748,733.0
236.9464,789.0
237.0179,731.0
237.0894,820.0
237.1609,761.0
237.2324,826.0
237.3039,770.0
237.3754,831.0
237.4469,760.0
237.5184,858.0
237.5898,739.0
237.6613,825.0
237.7328,753.0
237.8043,858.0
237.8758,809.0
237.9472,809.0
238.0187,726.0
238.0902,858.0
238.1617,785.0
238.2331,890.0
238.3046,768.0
238.376,819.0
238.4475,797.0
238.519,838.0
238.5904,819.0
238.6618,818.0
238.7333,791.0
238.8047,846.0
238.8762,773.0
238.9476,861.0
239.0191,761.0
239.0905,867.0
239.1619,731.0
239.2334,846.0
239.3048,756.0
239.3762,822.0
239.4476,779.0
239.519,847.0
239.5904,767.0
239.6619,872.0
239.7333,751.0
239.8047,875.0
239.8761,781.0
239.9475,849.0
240.0189,768.0
240.0903,845.0
240.1617,787.0
240.233,840.0
240.3044,770.0
240.3758,870.0
240.4472,776.0
240.5186,829.0
240.59,740.0
240.6613,853.0
240.7327,813.0
240.8041,836.0
240.8754,800.0
240.9468,858.0
241.0181,746.0
241.0895,828.0
241.1609,814.0
241.2322,860.0
241.3036,787.0
241.3749,835.0
241.4462,802.0
241.5176,893.0
241.5889,780.0
241.6602,859.0
241.7316,805.0
241.8029,855.0
241.8743,760.0
241.9456,842.0
242.0169,771.0
242.0882,828.0
242.1595,793.0
242.2309,866.0
242.3022,771.0
242.3735,843.0
242.4448,774.0
242.5161,840.0
242.5874,805.0
242.6587,839.0
242.73,779.0
242.8013,825.0
242.8726,764.0
242.9438,842.0
243.0151,793.0
243.0864,817.0
243.1577,780.0
243.229,878.0
243.3002,795.0
243.3715,840.0
243.4428,792.0
243.5141,828.0
243.5853,783.0
243.6566,875.0
243.7278,744.0
243.7991,870.0
243.8703,764.0
243.9416,865.0
244.0128,771.0
244.0841,840.0
244.1553,761.0
244.2266,878.0
244.2978,748.0
244.369,851.0
244.4402,788.0
244.5115,818.0
244.5827,787.0
244.6539,822.0
244.7251,821.0
244.7964,820.0
244.8676,773.0
244.9388,847.0
245.01,753.0
245.0812,852.0
245.1524,780.0
245.2236,856.0
245.2948,783.0
245.366,830.0
245.4372,728.0
245.5084,846.0
245.5796,762.0
245.6507,835.0
245.7219,743.0
245.7931,846.0
245.8643,771.0
245.9355,841.0
246.0066,757.0
246.0778,781.0
246.149,747.0
246.2201,825.0
246.2913,760.0
246.3624,832.0
246.4336,760.0
246.5047,845.0
246.5759,758.0
246.647,830.0
246.7182,732.0
246.7893,846.0
246.8605,748.0
246.9316,797.0
247.0027,747.0
247.0739,826.0
247.145,743.0
247.2161,820.0
247.2872,734.0
247.3584,823.0
247.4295,779.0
247.5006,841.0
247.5717,768.0
247.6428,909.0
247.7139,921.0
247.785,1031.0
247.8561,1042.0
247.9272,1184.0
247.9983,1054.0
248.0694,1034.0
248.1405,909.0
248.2116,897.0
248.2827,814.0
248.3537,851.0
248.4248,761.0
248.4959,826.0
248.5669,774.0
248.638,861.0
248.7091,757.0
248.7802,860.0
248.8512,755.0
248.9223,855.0
248.9933,792.0
249.0644,812.0
249.1354,788.0
249.2065,821.0
249.2775,743.0
249.3486,820.0
249.4196,680.0
249.4906,810.0
249.5617,750.0
249.6327,787.0
249.7037,710.0
249.7747,828.0
249.8458,747.0
249.9168,821.0
249.9878,767.0
250.0588,835.0
250.1298,766.0
250.2009,831.0
250.2719,816.0
250.3429,817.0
250.4138,769.0
250.4849,849.0
250.5558,751.0
250.6268,872.0
250.6978,760.0
250.7688,866.0
250.8398,828.0
250.9108,903.0
250.9818,846.0
251.0527,906.0
251.1237,865.0
251.1947,956.0
251.2657,891.0
251.3366,909.0
251.4076,759.0
251.4785,848.0
251.5495,776.0
251.6205,815.0
251.6914,772.0
251.7623,859.0
251.8333,768.0
251.9042,816.0
251.9752,765.0
252.0461,846.0
252.1171,737.0
252.188,826.0
252.2589,706.0
252.3298,842.0
252.4008,755.0
252.4717,820.0
252.5426,719.0
252.6135,833.0
252.6844,777.0
252.7553,821.0
252.8262,718.0
252.8971,799.0
252.9681,704.0
253.039,840.0
253.1098,738.0
253.1808,815.0
253.2516,739.0
253.3225,768.0
253.3934,732.0
253.4643,799.0
253.5352,725.0
253.606,805.0
253.6769,750.0
253.7478,828.0
253.8187,815.0
253.8895,804.0
253.9604,710.0
254.0312,849.0
254.1021,730.0
254.173,833.0
254.2438,762.0
254.3147,809.0
254.3855,748.0
254.4563,813.0
254.5272,754.0
254.598,857.0
254.6689,762.0
254.7397,808.0
254.8105,752.0
254.8813,793.0
254.9522,788.0
255.023,815.0
255.0938,718.0
255.1646,862.0
255.2354,690.0
255.3062,810.0
255.3771,725.0
255.4479,861.0
255.5187,749.0
255.5894,805.0
255.6603,741.0
255.731,872.0
255.8018,720.0
255.8726,832.0
255.9434,726.0
256.0142,844.0
256.085,756.0
256.1558,826.0
256.2265,724.0
256.2973,817.0
256.3681,750.0
256.4388,852.0
256.5096,723.0
256.5804,828.0
256.6511,752.0
256.7219,829.0
256.7926,738.0
256.8634,839.0
256.9341,796.0
257.0049,864.0
257.0756,760.0
257.1463,847.0
257.2171,755.0
257.2878,866.0
257.3585,790.0
257.4292,802.0
257.5,725.0
257.5707,803.0
257.6414,731.0
257.7122,839.0
257.7828,767.0
257.8535,826.0
257.9243,759.0
257.995,835.0
258.0657,733.0
258.1364,785.0
258.2071,771.0
258.2777,813.0
258.3484,761.0
258.4191,808.0
258.4898,750.0
258.5605,785.0
258.6312,764.0
258.7018,848.0
258.7725,748.0
258.8432,781.0
258.9139,742.0
258.9845,790.0
259.0552,688.0
259.1259,822.0
259.1965,702.0
259.2672,797.0
259.3378,763.0
259.4085,754.0
259.4791,715.0
259.5497,763.0
259.6204,688.0
259.691,805.0
259.7617,731.0
259.8323,835.0
259.9029,695.0
259.9735,828.0
260.0442,708.0
260.1147,791.0
260.1854,735.0
260.256,829.0
260.3267,702.0
260.3972,842.0
260.4678,725.0
260.5384,805.0
260.6091,722.0
260.6796,819.0
260.7502,747.0
260.8208,798.0
260.8914,754.0
260.962,811.0
261.0326,709.0
261.1032,811.0
261.1737,753.0
261.2444,833.0
261.3149,767.0
261.3854,824.0
261.456,757.0
261.5266,872.0
261.5971,752.0
261.6677,831.0
261.7383,792.0
261.8088,810.0
261.8794,758.0
261.9499,810.0
262.0205,791.0
262.091,820.0
262.1615,743.0
262.2321,861.0
262.3026,809.0
262.3731,843.0
262.4437,754.0
262.5142,847.0
262.5847,732.0
262.6552,822.0
262.7257,725.0
262.7962,879.0
262.8668,767.0
262.9373,854.0
263.0078,779.0
263.0783,832.0
263.1488,807.0
263.2193,817.0
263.2898,747.0
263.3603,841.0
263.4307,746.0
263.5012,857.0
263.5717,782.0
263.6422,849.0
263.7127,786.0
263.7831,829.0
263.8536,802.0
263.9241,859.0
263.9945,772.0
264.065,869.0
264.1354,748.0
264.2059,831.0
264.2764,757.0
264.3468,864.0
264.4173,726.0
264.4877,896.0
264.5581,751.0
264.6286,836.0
264.699,774.0
264.7694,833.0
264.8399,764.0
264.9103,805.0
264.9807,764.0
265.0511,845.0
265.1216,760.0
265.192,836.0
265.2625,736.0
265.3328,808.0
265.4032,772.0
265.4736,802.0
265.5441,778.0
265.6144,808.0
265.6848,748.0
265.7552,796.0
265.8256,739.0
265.896,835.0
265.9664,726.0
266.0368,862.0
266.1071,724.0
266.1775,817.0
266.2479,729.0
266.3183,789.0
266.3886,739.0
266.459,776.0
266.5294,722.0
266.5998,834.0
266.6701,734.0
266.7404,843.0
266.8108,746.0
266.8812,819.0
266.9515,719.0
267.0219,821.0
267.0922,749.0
267.1625,819.0
267.2328,749.0
267.3032,833.0
267.3735,696.0
267.4438,768.0
267.5142,685.0
267.5845,850.0
267.6548,796.0
267.7251,788.0
267.7954,692.0
267.8657,778.0
267.936,745.0
268.0063,822.0
268.0766,708.0
268.1469,822.0
268.2172,721.0
268.2875,766.0
268.3578,695.0
268.4281,774.0
268.4984,787.0
268.5686,772.0
268.6389,737.0
268.7092,787.0
268.7794,735.0
268.8498,843.0
268.92,720.0
268.9902,802.0
269.0605,699.0
269.1308,797.0
269.201,751.0
269.2713,790.0
269.3415,741.0
269.4118,805.0
269.482,690.0
269.5523,821.0
269.6225,729.0
269.6927,792.0
269.7629,728.0
269.8332,805.0
269.9034,706.0
269.9736,804.0
270.0439,694.0
270.114,768.0
270.1843,724.0
270.2545,795.0
270.3247,752.0
270.3949,805.0
270.4651,788.0
270.5353,794.0
270.6055,727.0
270.6757,810.0
270.7459,754.0
270.8161,810.0
270.8863,767.0
270.9564,841.0
271.0266,759.0
271.0968,835.0
271.167,707.0
271.2371,849.0
271.3073,722.0
271.3775,863.0
271.4476,745.0
271.5178,851.0
271.588,784.0
271.6581,805.0
271.7282,719.0
271.7984,822.0
271.8685,679.0
271.9387,790.0
272.0088,744.0
272.0789,857.0
272.1491,745.0
272.2192,829.0
272.2893,743.0
272.3595,830.0
272.4296,758.0
272.4997,824.0
272.5698,706.0
272.64,851.0
272.7101,757.0
272.7802,809.0
272.8503,750.0
272.9204,815.0
272.9904,755.0
273.0605,858.0
273.1306,772.0
273.2007,855.0
273.2708,723.0
273.3409,841.0
273.411,757.0
273.481,806.0
273.5511,773.0
273.6212,829.0
273.6913,796.0
273.7614,866.0
273.8314,777.0
273.9015,852.0
273.9715,788.0
274.0416,836.0
274.1116,771.0
274.1817,838.0
274.2517,770.0
274.3217,896.0
274.3918,782.0
274.4619,853.0
274.5319,781.0
274.602,855.0
274.6719,776.0
274.742,855.0
274.812,802.0
274.882,830.0
274.952,801.0
275.0221,902.0
275.0921,755.0
275.1621,823.0
275.2321,781.0
275.3021,800.0
275.3721,771.0
275.4421,815.0
275.5121,737.0
275.5821,882.0
275.6521,764.0
275.722,837.0
275.792,817.0
275.862,872.0
275.932,739.0
276.002,880.0
276.0719,762.0
276.1418,806.0
276.2119,766.0
276.2818,889.0
276.3517,786.0
276.4218,841.0
276.4917,789.0
276.5616,843.0
276.6316,790.0
276.7015,853.0
276.7715,828.0
276.8414,836.0
276.9113,699.0
276.9813,857.0
277.0512,750.0
277.1211,850.0
277.191,800.0
277.261,831.0
277.3309,752.0
277.4008,867.0
277.4707,793.0
277.5406,834.0
277.6105,757.0
277.6804,806.0
277.7503,793.0
277.8202,880.0
277.8901,763.0
277.96,856.0
278.0299,771.0
278.0998,870.0
278.1697,768.0
278.2396,787.0
278.3094,752.0
278.3793,857.0
278.4492,761.0
278.519,810.0
278.5889,757.0
278.6588,870.0
278.7286,770.0
278.7985,870.0
278.8683,745.0
278.9382,864.0
279.0081,777.0
279.0779,825.0
279.1477,769.0
279.2176,788.0
279.2874,812.0
279.3572,878.0
279.4271,770.0
279.4969,886.0
279.5667,772.0
279.6365,854.0
279.7063,803.0
279.7762,859.0
279.846,765.0
279.9158,850.0
279.9856,801.0
280.0554,857.0
280.1252,819.0
280.195,852.0
280.2648,755.0
280.3346,856.0
280.4044,840.0
280.4742,913.0
280.544,764.0
280.6137,867.0
280.6835,818.0
280.7533,842.0
280.8231,794.0
280.8928,892.0
280.9626,809.0
281.0323,889.0
281.1021,793.0
281.1719,903.0
281.2416,818.0
281.3114,876.0
281.3811,804.0
281.4509,834.0
281.5206,781.0
281.5904,859.0
281.6601,758.0
281.7299,894.0
281.7996,781.0
281.8693,884.0
281.939,795.0
282.0088,853.0
282.0784,787.0
282.1482,860.0
282.2179,780.0
282.2876,817.0
282.3573,794.0
282.427,869.0
282.4967,784.0
282.5664,848.0
282.6361,810.0
282.7058,873.0
282.7755,800.0
282.8452,878.0
282.9149,788.0
282.9845,871.0
283.0542,806.0
283.1239,884.0
283.1936,803.0
283.2632,908.0
283.3329,781.0
283.4026,877.0
283.4722,794.0
283.5419,899.0
283.6115,832.0
283.6812,892.0
283.7508,838.0
283.8205,869.0
283.8901,805.0
283.9597,894.0
284.0294,810.0
284.099,905.0
284.1686,796.0
284.2383,902.0
284.3079,795.0
284.3775,847.0
284.4471,818.0
284.5168,852.0
284.5864,743.0
284.656,879.0
284.7256,783.0
284.7952,817.0
284.8648,810.0
284.9344,869.0
285.004,809.0
285.0736,869.0
285.1432,794.0
285.2128,877.0
285.2823,770.0
285.3519,854.0
285.4215,762.0
285.4911,875.0
285.5606,772.0
285.6302,847.0
285.6998,793.0
285.7693,847.0
285.8389,793.0
285.9084,848.0
285.978,791.0
286.0475,812.0
286.1171,767.0
286.1866,814.0
286.2562,776.0
286.3257,857.0
286.3952,766.0
286.4648,833.0
286.5343,743.0
286.6039,824.0
286.6733,764.0
286.7429,827.0
286.8124,728.0
286.8819,815.0
286.9514,780.0
287.0209,850.0
287.0904,693.0
287.1599,854.0
287.2294,781.0
287.299,876.0
287.3684,781.0
287.4379,850.0
287.5074,755.0
287.5769,874.0
287.6464,772.0
287.7159,822.0
287.7853,759.0
287.8548,833.0
287.9243,783.0
287.9937,846.0
288.0632,797.0
288.1327,873.0
288.2021,734.0
288.2716,835.0
288.341,779.0
288.4105,864.0
288.4799,776.0
288.5493,825.0
288.6188,729.0
288.6882,789.0
288.7577,784.0
288.8271,886.0
288.8965,744.0
288.9659,924.0
289.0354,760.0
289.1048,832.0
289.1742,761.0
289.2436,858.0
289.313,802.0
289.3824,874.0
289.4518,790.0
289.5212,898.0
289.5906,747.0
289.66,833.0
289.7294,771.0
289.7988,829.0
289.8682,757.0
289.9376,837.0
290.007,748.0
290.0764,861.0
290.1457,782.0
290.2151,882.0
290.2844,778.0
290.3538,876.0
290.4232,802.0
290.4925,863.0
290.5619,809.0
290.6312,875.0
290.7006,778.0
290.7699,853.0
290.8393,793.0
290.9086,896.0
290.978,835.0
291.0473,859.0
291.1166,778.0
291.1859,816.0
291.2553,762.0
291.3246,865.0
291.3939,807.0
291.4632,861.0
291.5325,798.0
291.6018,875.0
291.6712,812.0
291.7405,893.0
291.8098,800.0
291.8791,845.0
291.9484,803.0
292.0176,902.0
292.0869,806.0
292.1562,866.0
292.2255,790.0
292.2948,871.0
292.3641,821.0
292.4334,865.0
292.5026,813.0
292.5719,941.0
292.6412,773.0
292.7104,868.0
292.7797,806.0
292.8489,904.0
292.9182,780.0
292.9875,868.0
293.0567,752.0
293.1259,879.0
293.1952,802.0
293.2644,868.0
293.3336,748.0
293.4029,902.0
293.4721,789.0
293.5413,877.0
293.6106,780.0
293.6798,858.0
293.749,775.0
293.8182,914.0
293.8875,812.0
293.9566,904.0
294.0259,801.0
294.0951,907.0
294.1642,767.0
294.2334,890.0
294.3026,816.0
294.3718,878.0
294.441,819.0
294.5102,913.0
294.5794,819.0
294.6485,880.0
294.7177,785.0
294.7869,847.0
294.8561,776.0
294.9253,971.0
294.9944,770.0
295.0636,890.0
295.1327,793.0
295.2019,872.0
295.271,793.0
295.3402,849.0
295.4093,805.0
295.4785,864.0
295.5476,792.0
295.6168,892.0
295.6859,744.0
295.755,848.0
295.8241,776.0
295.8932,886.0
295.9623,826.0
296.0315,890.0
296.1006,766.0
296.1697,868.0
296.2388,815.0
296.3079,851.0
296.377,843.0
296.4461,873.0
296.5152,782.0
296.5843,857.0
296.6534,757.0
296.7225,881.0
296.7916,800.0
296.8606,907.0
296.9297,790.0
296.9988,866.0
297.0679,782.0
297.137,870.0
297.206,787.0
297.2751,895.0
297.3441,779.0
297.4132,853.0
297.4823,809.0
297.5513,885.0
297.6204,791.0
297.6894,869.0
297.7584,822.0
297.8275,850.0
297.8965,772.0
297.9655,889.0
298.0346,822.0
298.1036,845.0
298.1726,803.0
298.2417,860.0
298.3106,810.0
298.3797,893.0
298.4487,796.0
298.5177,869.0
298.5867,802.0
298.6557,931.0
298.7247,802.0
298.7937,914.0
298.8627,830.0
298.9317,901.0
299.0007,817.0
299.0696,849.0
299.1386,793.0
299.2076,859.0
299.2766,836.0
299.3456,878.0
299.4145,806.0
299.4835,868.0
299.5524,803.0
299.6214,902.0
299.6903,785.0
299.7593,937.0
299.8282,812.0
299.8972,905.0
299.9661,815.0
300.0351,916.0
300.104,816.0
300.173,896.0
300.2419,820.0
300.3108,931.0
300.3797,806.0
300.4487,936.0
300.5176,768.0
300.5865,880.0
300.6554,807.0
300.7243,881.0
300.7932,794.0
300.8621,944.0
300.931,806.0
300.9999,911.0
301.0688,830.0
301.1377,895.0
301.2066,790.0
301.2755,925.0
301.3444,813.0
301.4132,903.0
301.4821,801.0
301.551,911.0
301.6199,870.0
301.6887,936.0
301.7576,811.0
301.8265,896.0
301.8953,817.0
301.9642,891.0
302.033,808.0
302.1019,901.0
302.1707,808.0
302.2396,894.0
302.3084,837.0
302.3772,896.0
302.4461,848.0
302.5149,870.0
302.5837,825.0
302.6526,882.0
302.7214,818.0
302.7902,880.0
302.859,825.0
302.9278,898.0
302.9966,859.0
303.0654,953.0
303.1342,778.0
303.203,894.0
303.2718,783.0
303.3406,933.0
303.4094,818.0
303.4781,907.0
303.547,847.0
303.6158,867.0
303.6845,836.0
303.7533,921.0
303.8221,807.0
303.8908,935.0
303.9596,833.0
304.0284,944.0
304.0971,858.0
304.1659,913.0
304.2346,859.0
304.3034,890.0
304.3721,808.0
304.4409,883.0
304.5096,808.0
304.5784,927.0
304.6471,847.0
304.7158,918.0
304.7845,825.0
304.8533,904.0
304.922,827.0
304.9907,899.0
305.0594,865.0
305.1281,938.0
305.1969,828.0
305.2656,893.0
305.3343,815.0
305.403,932.0
305.4717,831.0
305.5403,900.0
305.609,834.0
305.6778,891.0
305.7464,808.0
305.8151,939.0
305.8838,814.0
305.9525,907.0
306.0211,837.0
306.0898,868.0
306.1585,783.0
306.2271,909.0
306.2958,801.0
306.3645,912.0
306.4331,802.0
306.5017,885.0
306.5704,870.0
306.6391,902.0
306.7077,840.0
306.7763,923.0
306.845,810.0
306.9136,899.0
306.9822,829.0
307.0508,912.0
307.1195,837.0
307.1881,903.0
307.2567,819.0
307.3253,914.0
307.3939,858.0
307.4625,936.0
307.5312,801.0
307.5998,925.0
307.6684,815.0
307.7369,855.0
307.8055,790.0
307.8741,940.0
307.9427,808.0
308.0113,899.0
308.0799,765.0
308.1484,891.0
308.217,770.0
308.2856,874.0
308.3542,779.0
308.4227,904.0
308.4913,789.0
308.5598,873.0
308.6284,781.0
308.6969,909.0
308.7655,812.0
308.834,928.0
308.9026,814.0
308.9711,884.0
309.0396,776.0
309.1082,940.0
309.1767,780.0
309.2452,901.0
309.3138,808.0
309.3823,924.0
309.4508,816.0
309.5193,866.0
309.5878,826.0
309.6563,900.0
309.7249,802.0
309.7933,908.0
309.8618,831.0
309.9303,881.0
309.9988,776.0
310.0673,889.0
310.1358,778.0
310.2043,859.0
310.2728,798.0
310.3412,858.0
310.4097,732.0
310.4781,867.0
310.5466,855.0
310.6151,889.0
310.6836,855.0
310.752,870.0
310.8205,795.0
310.8889,899.0
310.9574,802.0
311.0258,873.0
311.0943,773.0
311.1627,903.0
311.2311,803.0
311.2996,861.0
311.368,868.0
311.4364,880.0
311.5049,795.0
311.5733,937.0
311.6417,812.0
311.7101,872.0
311.7785,824.0
311.8469,843.0
311.9153,828.0
311.9837,918.0
312.0521,798.0
312.1205,894.0
312.1889,759.0
312.2573,886.0
312.3257,777.0
312.3941,875.0
312.4624,815.0
312.5308,833.0
312.5992,789.0
312.6675,866.0
312.7359,817.0
312.8043,843.0
312.8727,752.0
312.941,872.0
313.0093,773.0
313.0777,830.0
313.1461,795.0
313.2144,860.0
313.2827,762.0
313.3511,856.0
313.4194,767.0
313.4877,817.0
313.5561,738.0
313.6244,889.0
313.6927,758.0
313.761,819.0
313.8294,696.0
313.8977,815.0
313.966,734.0
314.0343,831.0
314.1026,781.0
314.1709,822.0
314.2392,795.0
314.3075,857.0
314.3758,761.0
314.4441,878.0
314.5124,753.0
314.5806,881.0
314.6489,732.0
314.7172,898.0
314.7855,795.0
314.8537,840.0
314.922,824.0
314.9903,868.0
315.0585,773.0
315.1268,905.0
315.195,828.0
315.2633,890.0
315.3315,834.0
315.3998,830.0
315.468,782.0
315.5362,848.0
315.6045,749.0
315.6727,851.0
315.7409,791.0
315.8092,895.0
315.8774,812.0
315.9456,878.0
316.0138,831.0
316.082,883.0
316.1502,781.0
316.2184,892.0
316.2867,837.0
316.3549,855.0
316.423,801.0
316.4912,908.0
316.5594,798.0
316.6276,874.0
316.6958,819.0
316.764,884.0
316.8322,800.0
316.9003,901.0
316.9685,779.0
317.0367,917.0
317.1049,812.0
317.173,914.0
317.2411,844.0
317.3093,909.0
317.3774,816.0
317.4456,894.0
317.5137,823.0
317.5819,916.0
317.65,804.0
317.7182,900.0
317.7863,845.0
317.8545,901.0
317.9225,822.0
317.9907,890.0
318.0588,798.0
318.1269,936.0
318.195,856.0
318.2631,925.0
318.3312,813.0
318.3994,877.0
318.4675,824.0
318.5355,914.0
318.6036,814.0
318.6717,914.0
318.7398,798.0
318.8079,890.0
318.876,813.0
318.9441,933.0
319.0121,821.0
319.0802,947.0
319.1483,861.0
319.2164,880.0
319.2844,798.0
319.3525,910.0
319.4205,809.0
319.4886,928.0
319.5566,824.0
319.6247,909.0
319.6927,841.0
319.7608,924.0
319.8288,886.0
319.8968,934.0
319.9648,850.0
320.0329,952.0
320.1009,784.0
320.1689,889.0
320.237,831.0
320.305,915.0
320.373,832.0
320.441,864.0
320.509,812.0
320.577,925.0
320.645,827.0
320.713,914.0
320.781,842.0
320.849,900.0
320.917,798.0
320.985,917.0
321.0529,813.0
321.1209,923.0
321.1889,834.0
321.2568,879.0
321.3248,828.0
321.3928,888.0
321.4608,813.0
321.5287,885.0
321.5966,789.0
321.6646,892.0
321.7325,836.0
321.8005,932.0
321.8684,822.0
321.9364,912.0
322.0043,836.0
322.0722,914.0
322.1401,828.0
322.2081,881.0
322.276,840.0
322.344,908.0
322.4119,823.0
322.4797,884.0
322.5477,818.0
322.6156,870.0
322.6835,824.0
322.7514,925.0
322.8193,812.0
322.8871,861.0
322.955,861.0
323.0229,958.0
323.0908,826.0
323.1588,926.0
323.2266,830.0
323.2945,902.0
323.3623,825.0
323.4302,947.0
323.4981,807.0
323.5659,935.0
323.6338,855.0
323.7016,870.0
323.7695,853.0
323.8373,939.0
323.9052,853.0
323.973,927.0
324.0409,849.0
324.1087,958.0
324.1765,887.0
324.2444,944.0
324.3122,805.0
324.38,902.0
324.4479,815.0
324.5157,949.0
324.5834,848.0
324.6512,916.0
324.7191,867.0
324.7869,919.0
324.8547,868.0
324.9225,934.0
324.9903,830.0
325.058,969.0
325.1259,887.0
325.1936,934.0
325.2614,813.0
325.3292,943.0
325.397,864.0
325.4647,917.0
325.5325,873.0
325.6002,888.0
325.668,835.0
325.7358,902.0
325.8036,848.0
325.8713,918.0
325.939,816.0
326.0068,879.0
326.0745,841.0
326.1422,872.0
326.21,829.0
326.2777,932.0
326.3455,823.0
326.4132,906.0
326.4809,822.0
326.5486,954.0
326.6164,834.0
326.6841,947.0
326.7518,855.0
326.8195,919.0
326.8872,805.0
326.9549,919.0
327.0226,809.0
327.0903,927.0
327.158,817.0
327.2256,904.0
327.2933,867.0
327.361,930.0
327.4287,845.0
327.4964,960.0
327.5641,836.0
327.6317,915.0
327.6994,861.0
327.767,994.0
327.8347,832.0
327.9023,936.0
327.97,873.0
328.0376,918.0
328.1053,843.0
328.1729,918.0
328.2406,870.0
328.3082,914.0
328.3759,877.0
328.4435,871.0
328.5111,849.0
328.5787,913.0
328.6463,837.0
328.7139,942.0
328.7816,835.0
328.8492,944.0
328.9168,798.0
328.9843,868.0
329.052,857.0
329.1196,901.0
329.1872,806.0
329.2548,901.0
329.3224,804.0
329.3899,902.0
329.4575,804.0
329.5251,897.0
329.5927,800.0
329.6602,888.0
329.7278,799.0
329.7953,886.0
329.8629,800.0
329.9305,906.0
329.998,824.0
330.0656,895.0
330.1331,817.0
330.2007,872.0
330.2682,785.0
330.3358,854.0
330.4033,791.0
330.4708,888.0
330.5383,806.0
330.6059,880.0
330.6734,817.0
330.7409,891.0
330.8084,814.0
330.876,927.0
330.9435,842.0
331.011,842.0
331.0784,821.0
331.1459,919.0
331.2134,821.0
331.2809,893.0
331.3484,791.0
331.4159,846.0
331.4834,793.0
331.5508,860.0
331.6183,808.0
331.6858,879.0
331.7533,801.0
331.8207,904.0
331.8882,808.0
331.9557,910.0
332.0231,795.0
332.0906,872.0
332.1581,778.0
332.2255,878.0
332.2929,777.0
332.3604,901.0
332.4278,814.0
332.4952,855.0
332.5627,769.0
332.6301,906.0
332.6975,756.0
332.7649,891.0
332.8323,799.0
332.8997,904.0
332.9672,795.0
333.0346,884.0
333.102,813.0
333.1694,925.0
333.2368,854.0
333.3042,871.0
333.3716,780.0
333.439,928.0
333.5063,800.0
333.5737,939.0
333.6411,847.0
333.7085,886.0
333.7758,826.0
333.8432,912.0
333.9106,823.0
333.9779,893.0
334.0453,779.0
334.1126,911.0
334.18,856.0
334.2473,877.0
334.3147,866.0
334.382,883.0
334.4494,843.0
334.5167,884.0
334.584,854.0
334.6514,893.0
334.7187,781.0
334.786,953.0
334.8533,806.0
334.9206,901.0
334.9879,816.0
335.0553,888.0
335.1226,816.0
335.1899,885.0
335.2572,846.0
335.3245,868.0
335.3918,846.0
335.459,948.0
335.5263,840.0
335.5936,875.0
335.6609,798.0
335.7282,933.0
335.7954,810.0
335.8627,904.0
335.93,805.0
335.9973,909.0
336.0645,778.0
336.1318,877.0
336.199,826.0
336.2662,908.0
336.3335,808.0
336.4008,891.0
336.468,750.0
336.5352,893.0
336.6024,802.0
336.6697,898.0
336.7369,821.0
336.8041,871.0
336.8714,768.0
336.9386,893.0
337.0058,779.0
337.073,894.0
337.1402,873.0
337.2074,890.0
337.2746,810.0
337.3418,869.0
337.409,803.0
337.4762,848.0
337.5434,813.0
337.6106,935.0
337.6777,772.0
337.7449,909.0
337.8121,798.0
337.8792,866.0
337.9464,809.0
338.0135,882.0
338.0807,802.0
338.1479,899.0
338.2151,819.0
338.2822,882.0
338.3493,809.0
338.4165,875.0
338.4836,771.0
338.5508,921.0
338.6179,767.0
338.6851,878.0
338.7521,787.0
338.8193,895.0
338.8864,778.0
338.9535,885.0
339.0206,803.0
339.0878,803.0
339.1548,763.0
339.222,879.0
339.289,810.0
339.3561,957.0
339.4233,763.0
339.4904,915.0
339.5574,811.0
339.6245,917.0
339.6916,762.0
339.7587,855.0
339.8257,813.0
339.8929,883.0
339.9599,818.0
340.0269,863.0
340.094,775.0
340.1611,858.0
340.2281,753.0
340.2952,851.0
340.3622,787.0
340.4293,841.0
340.4963,799.0
340.5633,886.0
340.6304,785.0
340.6974,879.0
340.7645,774.0
340.8315,913.0
340.8985,775.0
340.9655,854.0
341.0325,765.0
341.0995,857.0
341.1665,802.0
341.2335,855.0
341.3005,751.0
341.3675,870.0
341.4345,806.0
341.5015,869.0
341.5685,791.0
341.6355,863.0
341.7025,749.0
341.7694,899.0
341.8364,758.0
341.9034,883.0
341.9704,827.0
342.0373,898.0
342.1043,775.0
342.1712,887.0
342.2382,771.0
342.3051,887.0
342.3721,815.0
342.4391,895.0
342.506,775.0
342.5729,861.0
342.6398,787.0
342.7068,853.0
342.7737,773.0
342.8406,883.0
342.9076,786.0
342.9745,881.0
343.0414,822.0
343.1083,890.0
343.1752,767.0
343.2421,835.0
343.309,818.0
343.3759,857.0
343.4428,803.0
343.5097,935.0
343.5766,819.0
343.6434,875.0
343.7104,830.0
343.7772,875.0
343.8441,831.0
343.9109,883.0
343.9778,807.0
344.0447,837.0
344.1116,823.0
344.1784,913.0
344.2453,795.0
344.3121,883.0
344.3789,800.0
344.4458,939.0
344.5127,810.0
344.5795,951.0
344.6463,801.0
344.7131,874.0
344.78,811.0
344.8468,905.0
344.9136,775.0
344.9805,922.0
345.0473,809.0
345.1141,879.0
345.1809,798.0
345.2477,935.0
345.3145,827.0
345.3813,910.0
345.4481,815.0
345.5149,881.0
345.5816,799.0
345.6484,877.0
345.7152,785.0
345.782,919.0
345.8488,802.0
345.9155,887.0
345.9823,798.0
346.049,872.0
346.1158,813.0
346.1826,919.0
346.2493,823.0
346.3161,899.0
346.3828,794.0
346.4496,910.0
346.5163,815.0
346.5831,919.0
346.6498,835.0
346.7165,877.0
346.7832,835.0
346.85,875.0
346.9167,803.0
346.9834,869.0
347.0501,778.0
347.1168,865.0
347.1835,859.0
347.2502,867.0
347.3169,808.0
347.3836,905.0
347.4503,806.0
347.517,845.0
347.5837,841.0
347.6504,894.0
347.717,816.0
347.7837,921.0
347.8504,826.0
347.9171,854.0
347.9837,815.0
348.0504,922.0
348.1171,814.0
348.1837,893.0
348.2504,859.0
348.317,927.0
348.3837,817.0
348.4503,893.0
348.5169,810.0
348.5836,933.0
348.6502,841.0
348.7169,894.0
348.7835,854.0
348.8501,909.0
348.9167,806.0
348.9833,950.0
349.0499,863.0
349.1165,927.0
349.1832,850.0
349.2498,895.0
349.3163,827.0
349.3829,905.0
349.4495,849.0
349.5161,911.0
349.5827,827.0
349.6493,969.0
349.7159,802.0
349.7824,926.0
349.849,815.0
349.9156,917.0
349.9821,866.0
350.0487,923.0
350.1153,859.0
350.1818,903.0
350.2484,804.0
350.3149,915.0
350.3814,803.0
350.448,867.0
350.5146,781.0
350.5811,902.0
350.6476,867.0
350.7141,947.0
350.7807,843.0
350.8472,968.0
350.9137,793.0
350.9802,915.0
351.0467,801.0
351.1132,895.0
351.1797,858.0
351.2462,898.0
351.3127,853.0
351.3792,912.0
351.4457,819.0
351.5122,935.0
351.5787,853.0
351.6451,974.0
351.7116,824.0
351.7781,927.0
351.8446,871.0
351.911,924.0
351.9775,861.0
352.044,966.0
352.1104,879.0
352.1769,957.0
352.2433,858.0
352.3098,920.0
352.3762,901.0
352.4427,959.0
352.5091,858.0
352.5755,925.0
352.642,850.0
352.7084,940.0
352.7748,869.0
352.8412,973.0
352.9077,850.0
352.9741,969.0
353.0405,858.0
353.1068,950.0
353.1732,872.0
353.2396,1009.0
353.306,890.0
353.3724,927.0
353.4388,933.0
353.5052,958.0
353.5716,872.0
353.638,939.0
353.7043,939.0
353.7707,984.0
353.8371,899.0
353.9034,998.0
353.9698,893.0
354.0362,955.0
354.1025,962.0
354.1689,1045.0
354.2352,915.0
354.3016,992.0
354.3679,929.0
354.4342,1039.0
354.5005,884.0
354.5669,1047.0
354.6332,962.0
354.6996,1048.0
354.7659,987.0
354.8322,1012.0
354.8985,939.0
354.9648,1019.0
355.0311,948.0
355.0974,1029.0
355.1637,966.0
355.23,1027.0
355.2963,911.0
355.3625,1014.0
355.4289,882.0
355.4952,983.0
355.5614,875.0
355.6277,1007.0
355.694,947.0
355.7603,957.0
355.8265,931.0
355.8928,1023.0
355.959,935.0
356.0253,1029.0
356.0916,894.0
356.1578,1015.0
356.224,943.0
356.2903,993.0
356.3565,936.0
356.4228,1011.0
356.489,879.0
356.5552,969.0
356.6214,898.0
356.6876,992.0
356.7539,885.0
356.8201,1011.0
356.8863,870.0
356.9525,975.0
357.0187,858.0
357.0849,1010.0
357.1511,847.0
357.2173,941.0
357.2835,887.0
357.3497,975.0
357.4158,885.0
357.482,969.0
357.5482,890.0
357.6144,983.0
357.6805,901.0
357.7467,1028.0
357.8128,932.0
357.879,1071.0
357.9452,1001.0
358.0114,1158.0
358.0775,1102.0
358.1436,1224.0
358.2097,1183.0
358.2759,1346.0
358.342,1305.0
358.4082,1385.0
358.4743,1230.0
358.5404,1351.0
358.6065,1115.0
358.6726,1088.0
358.7387,994.0
358.8049,1115.0
358.871,1067.0
358.9371,1165.0
359.0032,1038.0
359.0693,1009.0
359.1353,847.0
359.2014,901.0
359.2676,852.0
359.3336,913.0
359.3997,826.0
359.4658,921.0
359.5318,850.0
359.5979,922.0
359.664,822.0
359.7301,903.0
359.7961,810.0
359.8622,905.0
359.9282,791.0
359.9943,873.0
360.0603,805.0
360.1264,897.0
360.1924,810.0
360.2585,863.0
360.3244,820.0
360.3905,872.0
360.4565,774.0
360.5225,925.0
360.5885,865.0
360.6546,916.0
360.7206,814.0
360.7866,873.0
360.8526,804.0
360.9185,898.0
360.9846,796.0
361.0506,883.0
361.1165,764.0
361.1825,894.0
361.2485,795.0
361.3145,920.0
361.3805,811.0
361.4465,892.0
361.5124,795.0
361.5784,901.0
361.6443,780.0
361.7103,897.0
361.7762,798.0
361.8422,973.0
361.9082,814.0
361.9741,886.0
362.04,782.0
362.106,897.0
362.1719,844.0
362.2379,847.0
362.3038,823.0
362.3697,895.0
362.4356,782.0
362.5015,940.0
362.5675,837.0
362.6334,913.0
362.6993,823.0
362.7652,895.0
362.8311,790.0
362.8969,908.0
362.9629,788.0
363.0287,929.0
363.0947,835.0
363.1605,929.0
363.2264,792.0
363.2923,914.0
363.3582,852.0
363.424,879.0
363.4899,832.0
363.5557,932.0
363.6216,809.0
363.6874,906.0
363.7533,809.0
363.8191,880.0
363.885,794.0
363.9508,860.0
364.0167,801.0
364.0825,900.0
364.1483,820.0
364.2142,913.0
364.28,820.0
364.3458,920.0
364.4116,820.0
364.4774,868.0
364.5432,800.0
364.609,890.0
364.6748,770.0
364.7406,906.0
364.8065,806.0
364.8722,908.0
364.938,833.0
365.0038,927.0
365.0696,813.0
365.1354,921.0
365.2011,810.0
365.2669,910.0
365.3326,791.0
365.3984,890.0
365.4642,834.0
365.5299,897.0
365.5957,775.0
365.6614,895.0
365.7272,827.0
365.7929,915.0
365.8587,818.0
365.9244,919.0
365.9902,787.0
366.0559,889.0
366.1216,829.0
366.1873,917.0
366.253,815.0
366.3188,929.0
366.3845,824.0
366.4502,942.0
366.5159,798.0
366.5816,927.0
366.6473,818.0
366.713,852.0
366.7787,785.0
366.8444,839.0
366.91,795.0
366.9757,889.0
367.0414,842.0
367.1071,922.0
367.1727,785.0
367.2384,875.0
367.3041,790.0
367.3697,867.0
367.4354,763.0
367.501,892.0
367.5667,805.0
367.6323,877.0
367.698,789.0
367.7636,867.0
367.8292,758.0
367.8948,806.0
367.9605,772.0
368.0261,836.0
368.0918,755.0
368.1573,885.0
368.223,757.0
368.2885,894.0
368.3542,772.0
368.4198,827.0
368.4854,790.0
368.551,830.0
368.6165,763.0
368.6821,886.0
368.7477,775.0
368.8133,865.0
368.8789,783.0
368.9445,865.0
369.01,773.0
369.0756,889.0
369.1411,790.0
369.2067,905.0
369.2723,776.0
369.3379,864.0
369.4034,784.0
369.4689,857.0
369.5345,814.0
369.6,846.0
369.6656,734.0
369.7311,842.0
369.7966,702.0
369.8622,853.0
369.9277,783.0
369.9932,829.0
370.0587,731.0
370.1242,879.0
370.1897,782.0
370.2552,833.0
370.3207,758.0
370.3862,869.0
370.4517,783.0
370.5172,885.0
370.5827,816.0
370.6482,863.0
370.7136,778.0
370.7791,861.0
370.8446,810.0
370.9101,858.0
370.9756,777.0
371.041,869.0
371.1064,756.0
371.1719,835.0
371.2373,767.0
371.3028,884.0
371.3683,818.0
371.4337,832.0
371.4991,773.0
371.5646,859.0
371.63,800.0
371.6954,833.0
371.7608,778.0
371.8263,892.0
371.8917,805.0
371.9571,840.0
372.0225,806.0
372.0879,895.0
372.1533,768.0
372.2187,886.0
372.2841,758.0
372.3495,883.0
372.4149,819.0
372.4803,884.0
372.5457,797.0
372.611,929.0
372.6764,781.0
372.7418,899.0
372.8071,826.0
372.8725,916.0
372.9379,866.0
373.0032,898.0
373.0686,815.0
373.1339,867.0
373.1992,790.0
373.2646,935.0
373.3299,803.0
373.3953,889.0
373.4606,829.0
373.5259,917.0
373.5912,775.0
373.6566,867.0
373.7219,778.0
373.7872,864.0
373.8525,834.0
373.9178,901.0
373.9831,845.0
374.0484,929.0
374.1137,830.0
374.179,933.0
374.2443,804.0
374.3096,962.0
374.3749,806.0
374.4401,923.0
374.5054,832.0
374.5706,898.0
374.636,871.0
374.7012,979.0
374.7665,847.0
374.8318,956.0
374.897,865.0
374.9622,913.0
375.0275,809.0
375.0927,925.0
375.158,848.0
375.2232,912.0
375.2885,854.0
375.3537,932.0
375.4189,842.0
375.4841,904.0
375.5493,844.0
375.6145,963.0
375.6797,878.0
375.745,947.0
375.8101,816.0
375.8754,952.0
375.9406,861.0
376.0057,955.0
376.071,867.0
376.1361,976.0
376.2013,894.0
376.2665,916.0
376.3317,833.0
376.3969,933.0
376.462,826.0
376.5272,943.0
376.5923,894.0
376.6575,950.0
376.7226,860.0
376.7878,939.0
376.8529,885.0
376.9181,989.0
376.9832,899.0
377.0483,938.0
377.1135,865.0
377.1786,996.0
377.2437,892.0
377.3089,965.0
377.374,897.0
377.4391,948.0
377.5042,892.0
377.5693,938.0
377.6344,870.0
377.6995,956.0
377.7646,886.0
377.8297,1000.0
377.8948,905.0
377.9599,981.0
378.025,864.0
378.09,931.0
378.1551,948.0
378.2202,1030.0
378.2852,968.0
378.3503,1038.0
378.4154,911.0
378.4804,1036.0
378.5455,867.0
378.6105,988.0
378.6755,997.0
378.7406,959.0
378.8057,958.0
378.8707,1007.0
378.9357,938.0
379.0008,1076.0
379.0658,973.0
379.1308,1043.0
379.1958,971.0
379.2609,1017.0
379.3259,986.0
379.3908,1100.0
379.4558,999.0
379.5208,1081.0
379.5858,958.0
379.6509,1073.0
379.7159,1012.0
379.7808,1077.0
379.8458,1054.0
379.9108,1135.0
379.9758,1014.0
380.0407,1160.0
380.1057,1050.0
380.1707,1123.0
380.2356,1133.0
380.3006,1165.0
380.3655,1086.0
380.4305,1161.0
380.4955,1049.0
380.5604,1214.0
380.6253,1096.0
380.6902,1183.0
380.7552,1142.0
380.8201,1200.0
380.885,1133.0
380.95,1180.0
381.0149,1209.0
381.0798,1257.0
381.1447,1114.0
381.2096,1280.0
381.2745,1152.0
381.3394,1236.0
381.4043,1192.0
381.4692,1225.0
381.5341,1226.0
381.5989,1298.0
381.6638,1202.0
381.7287,1256.0
381.7936,1178.0
381.8585,1355.0
381.9233,1215.0
381.9882,1315.0
382.053,1314.0
382.1179,1353.0
382.1828,1303.0
382.2476,1367.0
382.3124,1257.0
382.3773,1397.0
382.4421,1334.0
382.507,1335.0
382.5718,1297.0
382.6366,1374.0
382.7014,1254.0
382.7663,1301.0
382.8311,1311.0
382.8959,1446.0
382.9607,1361.0
383.0255,1437.0
383.0903,1348.0
383.1551,1481.0
383.2199,1415.0
383.2847,1450.0
383.3495,1392.0
383.4143,1430.0
383.479,1338.0
383.5438,1409.0
383.6086,1363.0
383.6734,1450.0
383.7381,1439.0
383.8029,1509.0
383.8676,1366.0
383.9324,1453.0
383.9972,1403.0
384.0619,1559.0
384.1266,1382.0
384.1914,1539.0
384.2562,1458.0
384.3209,1523.0
384.3856,1431.0
384.4503,1657.0
384.515,1509.0
384.5797,1651.0
384.6445,1601.0
384.7092,1733.0
384.7739,1674.0
384.8386,1918.0
384.9033,1811.0
384.968,1978.0
385.0327,1858.0
385.0974,1875.0
385.162,1757.0
385.2267,1881.0
385.2914,1851.0
385.3561,2029.0
385.4208,1861.0
385.4854,1794.0
385.5501,1692.0
385.6147,1743.0
385.6794,1714.0
385.7441,1830.0
385.8087,1835.0
385.8734,2044.0
385.938,1897.0
386.0027,2135.0
386.0673,2155.0
386.1319,2023.0
386.1966,1722.0
386.2612,1684.0
386.3258,1545.0
386.3904,1547.0
386.455,1603.0
386.5196,1751.0
386.5843,1736.0
386.6489,1972.0
386.7135,1919.0
386.778,2103.0
386.8426,2167.0
386.9072,2390.0
386.9718,2522.0
387.0364,2661.0
387.101,2279.0
387.1655,1753.0
387.2301,1407.0
387.2946,1417.0
387.3593,1352.0
387.4238,1359.0
387.4884,1408.0
387.5529,1545.0
387.6175,1486.0
387.682,1688.0
387.7466,1757.0
387.8111,1994.0
387.8756,2016.0
387.9402,2409.0
388.0047,2480.0
388.0692,2756.0
388.1337,2871.0
388.1982,3120.0
388.2628,2824.0
388.3272,1942.0
388.3918,1350.0
388.4563,1153.0
388.5208,934.0
388.5852,936.0
388.6497,833.0
388.7142,889.0
388.7787,858.0
388.8432,891.0
388.9077,818.0
388.9721,886.0
389.0366,810.0
389.1011,943.0
389.1655,823.0
389.23,899.0
389.2944,827.0
389.3589,911.0
389.4233,817.0
389.4878,891.0
389.5522,797.0
389.6167,919.0
389.6811,823.0
389.7455,910.0
389.8099,825.0
389.8744,906.0
389.9388,851.0
390.0032,905.0
390.0676,875.0
390.132,908.0
390.1964,813.0
390.2608,897.0
390.3252,804.0
390.3896,903.0
390.454,842.0
390.5184,938.0
390.5827,826.0
390.6471,910.0
390.7115,835.0
390.7759,931.0
390.8402,865.0
390.9046,927.0
390.9689,849.0
391.0333,941.0
391.0977,803.0
391.162,984.0
391.2264,793.0
391.2907,926.0
391.355,854.0
391.4193,935.0
391.4837,818.0
391.548,916.0
391.6123,823.0
391.6767,913.0
391.741,839.0
391.8053,925.0
391.8696,848.0
391.9339,921.0
391.9982,870.0
392.0625,887.0
392.1268,878.0
392.1911,954.0
392.2553,820.0
392.3196,911.0
392.3839,805.0
392.4482,903.0
392.5125,871.0
392.5767,914.0
392.641,863.0
392.7053,930.0
392.7695,845.0
392.8338,973.0
392.898,867.0
392.9622,945.0
393.0265,851.0
393.0908,960.0
393.155,904.0
393.2192,1017.0
393.2834,938.0
393.3477,997.0
393.4118,828.0
393.476,944.0
393.5403,836.0
393.6045,951.0
393.6687,872.0
393.7329,906.0
393.7971,832.0
393.8613,948.0
393.9255,843.0
393.9897,952.0
394.0539,883.0
394.118,934.0
394.1822,820.0
394.2464,921.0
394.3105,822.0
394.3747,915.0
394.4389,865.0
394.503,900.0
394.5672,810.0
394.6313,893.0
394.6954,841.0
394.7596,914.0
394.8238,830.0
394.8879,889.0
394.952,778.0
395.0161,900.0
395.0803,823.0
395.1444,921.0
395.2085,840.0
395.2726,883.0
395.3367,814.0
395.4008,847.0
395.4649,796.0
395.529,846.0
395.5931,827.0
395.6572,905.0
395.7213,783.0
395.7854,888.0
395.8495,819.0
395.9135,945.0
395.9776,810.0
396.0417,859.0
396.1057,822.0
396.1698,875.0
396.2339,764.0
396.2979,891.0
396.362,795.0
396.426,909.0
396.4901,869.0
396.5541,888.0
396.6181,863.0
396.6821,871.0
396.7462,856.0
396.8102,956.0
396.8743,792.0
396.9383,899.0
397.0023,803.0
397.0662,862.0
397.1302,774.0
397.1943,852.0
397.2583,821.0
397.3223,857.0
397.3862,813.0
397.4502,875.0
397.5142,796.0
397.5782,826.0
397.6422,776.0
397.7061,870.0
397.7701,779.0
397.8341,846.0
397.898,797.0
397.962,908.0
398.0259,773.0
398.0899,865.0
398.1538,799.0
398.2178,892.0
398.2817,808.0
398.3456,904.0
398.4096,784.0
398.4735,869.0
398.5374,778.0
398.6013,956.0
398.6653,832.0
398.7292,872.0
398.7931,814.0
398.857,897.0
398.9209,782.0
398.9848,900.0
399.0487,856.0
399.1125,861.0
399.1765,798.0
399.2404,881.0
399.3042,792.0
399.3681,924.0
399.432,792.0
399.4958,907.0
399.5597,804.0
399.6236,918.0
399.6875,834.0
399.7513,868.0
399.8152,847.0
399.879,894.0
399.9428,833.0
400.0067,911.0
400.0705,822.0
400.1343,929.0
400.1982,837.0
400.262,922.0
400.3258,801.0
400.3896,889.0
400.4534,806.0
400.5172,936.0
400.581,797.0
400.6448,922.0
400.7086,794.0
400.7724,865.0
400.8362,810.0
400.9,948.0
400.9638,815.0
401.0276,909.0
401.0913,814.0
401.1551,923.0
401.2189,862.0
401.2826,875.0
401.3464,878.0
401.4102,947.0
401.4739,799.0
401.5376,927.0
401.6014,869.0
401.6651,915.0
401.7289,815.0
401.7926,931.0
401.8564,847.0
401.92,878.0
401.9838,807.0
402.0475,927.0
402.1112,841.0
402.175,939.0
402.2386,839.0
402.3023,897.0
402.366,809.0
402.4297,948.0
402.4934,833.0
402.5571,943.0
402.6208,904.0
402.6845,934.0
402.7482,790.0
402.8118,910.0
402.8755,839.0
402.9392,958.0
403.0028,849.0
403.0665,979.0
403.1301,863.0
403.1938,933.0
403.2574,855.0
403.3211,938.0
403.3847,843.0
403.4484,963.0
403.512,836.0
403.5756,967.0
403.6393,883.0
403.7029,931.0
403.7665,865.0
403.8301,956.0
403.8937,863.0
403.9573,933.0
404.0209,867.0
404.0845,944.0
404.1481,846.0
404.2117,937.0
404.2753,858.0
404.3389,947.0
404.4024,828.0
404.466,903.0
404.5296,854.0
404.5932,971.0
404.6567,855.0
404.7203,942.0
404.7838,821.0
404.8474,947.0
404.9109,845.0
404.9745,891.0
405.0381,827.0
405.1016,944.0
405.1651,857.0
405.2286,856.0
405.2922,839.0
405.3557,927.0
405.4193,844.0
405.4828,944.0
405.5462,828.0
405.6097,921.0
405.6733,865.0
405.7368,910.0
405.8003,846.0
405.8638,926.0
405.9272,862.0
405.9907,908.0
406.0542,895.0
406.1177,927.0
406.1812,849.0
406.2446,947.0
406.3081,852.0
406.3716,917.0
406.435,855.0
406.4985,922.0
406.562,825.0
406.6254,952.0
406.6888,836.0
406.7523,913.0
406.8157,835.0
406.8791,940.0
406.9426,848.0
407.006,914.0
407.0694,914.0
407.1328,965.0
407.1962,864.0
407.2597,936.0
407.3231,867.0
407.3865,949.0
407.4499,850.0
407.5133,990.0
407.5767,922.0
407.64,995.0
407.7034,880.0
407.7668,943.0
407.8302,883.0
407.8936,981.0
407.9569,903.0
408.0203,968.0
408.0836,857.0
408.147,983.0
408.2104,884.0
408.2737,1015.0
408.3371,894.0
408.4004,990.0
408.4637,857.0
408.5271,986.0
408.5905,949.0
408.6537,969.0
408.7171,885.0
408.7804,954.0
408.8437,921.0
408.907,962.0
408.9703,920.0
409.0336,1002.0
409.0969,881.0
409.1602,1018.0
409.2235,931.0
409.2868,982.0
409.3501,907.0
409.4134,1036.0
409.4767,903.0
409.5399,979.0
409.6032,859.0
409.6665,965.0
409.7297,918.0
409.793,981.0
409.8563,901.0
409.9195,955.0
409.9827,908.0
410.046,979.0
410.1092,936.0
410.1725,1012.0
410.2357,911.0
410.299,980.0
410.3622,949.0
410.4254,972.0
410.4886,912.0
410.5518,969.0
410.615,902.0
410.6782,1004.0
410.7414,938.0
410.8046,1024.0
410.8678,918.0
410.931,935.0
410.9942,864.0
411.0574,957.0
411.1205,878.0
411.1837,997.0
411.2469,871.0
411.3101,954.0
411.3733,922.0
411.4364,937.0
411.4995,872.0
411.5627,951.0
411.6259,883.0
411.689,971.0
411.7521,910.0
411.8153,988.0
411.8784,923.0
411.9415,939.0
412.0046,917.0
412.0678,959.0
412.1309,900.0
412.194,957.0
412.2571,881.0
412.3203,942.0
412.3833,875.0
412.4464,984.0
412.5096,878.0
412.5727,918.0
412.6357,897.0
412.6988,955.0
412.7619,876.0
412.825,961.0
412.8881,885.0
412.9511,946.0
413.0142,857.0
413.0772,932.0
413.1403,882.0
413.2033,944.0
413.2664,907.0
413.3294,950.0
413.3925,890.0
413.4555,1003.0
413.5186,888.0
413.5816,959.0
413.6446,869.0
413.7076,957.0
413.7707,901.0
413.8337,966.0
413.8967,871.0
413.9597,954.0
414.0227,942.0
414.0857,978.0
414.1487,849.0
414.2117,975.0
414.2747,829.0
414.3376,1029.0
414.4006,911.0
414.4636,974.0
414.5266,923.0
414.5896,1038.0
414.6525,896.0
414.7155,995.0
414.7784,933.0
414.8414,1023.0
414.9044,989.0
414.9673,1042.0
415.0303,993.0
415.0932,1118.0
415.1561,993.0
415.2191,1032.0
415.282,965.0
415.3449,1068.0
415.4079,943.0
415.4708,1014.0
415.5336,964.0
415.5966,1066.0
415.6595,984.0
415.7224,1091.0
415.7853,967.0
415.8482,1008.0
415.9111,937.0
415.9739,998.0
416.0368,953.0
416.0997,987.0
416.1626,956.0
416.2255,1016.0
416.2883,993.0
416.3512,1024.0
416.414,1033.0
416.4769,1028.0
416.5397,988.0
416.6026,1130.0
416.6654,1000.0
416.7283,1038.0
416.7911,972.0
416.8539,968.0
416.9167,899.0
416.9796,1010.0
417.0424,933.0
417.1052,1016.0
417.168,946.0
417.2308,995.0
417.2936,937.0
417.3564,1026.0
417.4193,918.0
417.4821,1025.0
417.5448,921.0
417.6076,1050.0
417.6704,973.0
417.7332,1043.0
417.796,994.0
417.8587,1058.0
417.9215,995.0
417.9842,1108.0
418.047,999.0
418.1098,1029.0
418.1725,925.0
418.2353,959.0
418.298,874.0
418.3607,981.0
418.4235,798.0
418.4862,964.0
418.549,867.0
418.6117,981.0
418.6744,866.0
418.7371,979.0
418.7998,886.0
418.8625,943.0
418.9252,848.0
418.9879,955.0
419.0507,851.0
419.1133,949.0
419.176,931.0
419.2387,1040.0
419.3014,915.0
419.3641,1033.0
419.4268,1062.0
419.4894,1109.0
419.5521,1022.0
419.6147,1123.0
419.6774,1004.0
419.7401,979.0
419.8027,866.0
419.8654,901.0
419.928,861.0
419.9906,900.0
420.0533,857.0
420.1159,919.0
420.1785,856.0
420.2411,906.0
420.3038,832.0
420.3664,894.0
420.429,839.0
420.4916,942.0
420.5542,835.0
420.6168,936.0
420.6794,841.0
420.742,917.0
420.8046,901.0
420.8672,913.0
420.9297,912.0
420.9923,1002.0
421.0549,854.0
421.1175,1018.0
421.18,886.0
421.2426,958.0
421.3052,953.0
421.3677,1017.0
421.4303,955.0
421.4928,1097.0
421.5554,887.0
421.6179,948.0
421.6804,840.0
421.743,853.0
421.8055,826.0
421.868,869.0
421.9305,766.0
421.993,844.0
422.0556,812.0
422.1181,869.0
422.1806,738.0
422.2431,871.0
422.3055,778.0
422.368,912.0
422.4305,756.0
422.493,849.0
422.5555,795.0
422.618,847.0
422.6805,796.0
422.7429,900.0
422.8054,798.0
422.8679,859.0
422.9303,785.0
422.9928,892.0
423.0552,850.0
423.1177,885.0
423.1801,801.0
423.2425,902.0
423.305,812.0
423.3674,877.0
423.4298,794.0
423.4922,916.0
423.5547,789.0
423.617,892.0
423.6795,812.0
423.7419,893.0
423.8043,832.0
423.8667,876.0
423.9291,804.0
423.9915,908.0
424.0538,826.0
424.1163,900.0
424.1786,774.0
424.241,892.0
424.3034,806.0
424.3658,921.0
424.4281,854.0
424.4905,891.0
424.5529,850.0
424.6152,907.0
424.6775,802.0
424.7399,871.0
424.8022,855.0
424.8646,927.0
424.9269,887.0
424.9892,933.0
425.0515,883.0
425.1139,935.0
425.1762,815.0
425.2385,943.0
425.3008,870.0
425.3631,883.0
425.4254,833.0
425.4877,967.0
425.55,857.0
425.6123,929.0
425.6746,905.0
425.7369,948.0
425.7992,877.0
425.8614,914.0
425.9237,884.0
425.9859,918.0
426.0482,894.0
426.1105,938.0
426.1727,859.0
426.235,930.0
426.2972,843.0
426.3595,937.0
426.4217,863.0
426.4839,983.0
426.5462,889.0
426.6084,955.0
426.6706,890.0
426.7328,939.0
426.795,897.0
426.8573,914.0
426.9195,821.0
426.9817,903.0
427.0439,801.0
427.1061,930.0
427.1683,847.0
427.2305,960.0
427.2927,827.0
427.3549,900.0
427.417,819.0
427.4792,937.0
427.5413,838.0
427.6035,895.0
427.6657,882.0
427.7278,921.0
427.79,866.0
427.8521,947.0
427.9142,823.0
427.9764,931.0
428.0386,826.0
428.1007,913.0
428.1628,861.0
428.2249,919.0
428.287,841.0
428.3492,925.0
428.4113,824.0
428.4734,928.0
428.5355,847.0
428.5976,902.0
428.6597,878.0
428.7218,924.0
428.7839,808.0
428.846,945.0
428.9081,805.0
428.9702,931.0
429.0322,848.0
429.0943,908.0
429.1563,830.0
429.2184,926.0
429.2805,853.0
429.3425,910.0
429.4046,882.0
429.4666,861.0
429.5287,781.0
429.5908,874.0
429.6528,787.0
429.7148,915.0
429.7768,804.0
429.8388,874.0
429.9008,801.0
429.9629,873.0
430.0249,789.0
430.0869,880.0
430.1489,817.0
430.2109,904.0
430.2729,762.0
430.3349,856.0
430.3969,802.0
430.4589,886.0
430.5208,810.0
430.5828,881.0
430.6448,762.0
430.7068,903.0
430.7688,819.0
430.8307,871.0
430.8926,812.0
430.9546,887.0
431.0165,797.0
431.0785,905.0
431.1404,793.0
431.2024,874.0
431.2643,781.0
431.3262,902.0
431.3881,796.0
431.4501,806.0
431.512,839.0
431.5739,898.0
431.6358,753.0
431.6977,882.0
431.7596,761.0
431.8215,859.0
431.8834,769.0
431.9453,812.0
432.0072,803.0
432.0691,810.0
432.131,781.0
432.1928,870.0
432.2547,772.0
432.3165,843.0
432.3784,713.0
432.4403,858.0
432.5021,769.0
432.564,824.0
432.6258,751.0
432.6876,864.0
432.7495,757.0
432.8113,840.0
432.8732,726.0
432.935,833.0
432.9968,732.0
433.0586,850.0
433.1204,736.0
433.1823,845.0
433.2441,808.0
433.3059,846.0
433.3677,803.0
433.4295,844.0
433.4912,778.0
433.5531,834.0
433.6148,761.0
433.6766,857.0
433.7384,764.0
433.8001,881.0
433.8619,777.0
433.9237,878.0
433.9854,798.0
434.0472,850.0
434.1089,774.0
434.1707,812.0
434.2324,761.0
434.2942,875.0
434.3559,775.0
434.4177,903.0
434.4794,762.0
434.5411,874.0
434.6028,793.0
434.6645,853.0
434.7263,801.0
434.788,891.0
434.8497,807.0
434.9113,878.0
434.973,758.0
435.0347,880.0
435.0965,753.0
435.1581,855.0
435.2198,847.0
435.2815,857.0
435.3431,768.0
435.4048,896.0
435.4665,827.0
435.5282,905.0
435.5898,840.0
435.6515,874.0
435.7131,848.0
435.7747,873.0
435.8363,766.0
435.898,878.0
435.9597,821.0
436.0213,896.0
436.0829,864.0
436.1445,933.0
436.2061,869.0
436.2678,928.0
436.3294,882.0
436.391,952.0
436.4525,900.0
436.5141,870.0
436.5757,884.0
436.6373,903.0
436.6989,756.0
436.7605,920.0
436.8221,833.0
436.8836,910.0
436.9452,839.0
437.0067,898.0
437.0684,846.0
437.1299,890.0
437.1914,811.0
437.253,893.0
437.3145,783.0
437.3761,901.0
437.4376,737.0
437.4992,863.0
437.5607,778.0
437.6222,883.0
437.6837,796.0
437.7452,850.0
437.8067,779.0
437.8683,887.0
437.9298,823.0
437.9913,892.0
438.0528,769.0
438.1143,887.0
438.1757,801.0
438.2372,865.0
438.2987,804.0
438.3602,840.0
438.4217,755.0
438.4831,846.0
438.5446,786.0
438.6061,852.0
438.6675,770.0
438.729,849.0
438.7904,731.0
438.8519,851.0
438.9133,804.0
438.9747,809.0
439.0362,772.0
439.0976,859.0
439.159,767.0
439.2204,864.0
439.2819,742.0
439.3433,876.0
439.4047,761.0
439.4661,867.0
439.5275,778.0
439.5889,831.0
439.6503,748.0
439.7116,822.0
439.7731,785.0
439.8345,881.0
439.8958,753.0
439.9572,856.0
440.0186,787.0
440.0799,872.0
440.1413,772.0
440.2027,862.0
440.264,790.0
440.3253,861.0
440.3867,792.0
440.448,860.0
440.5093,805.0
440.5707,851.0
440.632,774.0
440.6934,860.0
440.7546,822.0
440.816,894.0
440.8773,741.0
440.9386,873.0
440.9999,804.0
441.0612,819.0
441.1225,793.0
441.1838,874.0
441.2451,776.0
441.3063,878.0
441.3677,809.0
441.429,858.0
441.4902,767.0
441.5515,814.0
441.6127,777.0
441.674,858.0
441.7353,821.0
441.7965,829.0
441.8578,755.0
441.919,816.0
441.9802,845.0
442.0414,858.0
442.1027,726.0
442.164,931.0
442.2252,814.0
442.2864,844.0
442.3476,769.0
442.4088,857.0
442.47,787.0
442.5312,837.0
442.5924,812.0
442.6536,868.0
442.7148,784.0
442.776,857.0
442.8372,778.0
442.8984,840.0
442.9596,780.0
443.0207,878.0
443.0819,784.0
443.143,835.0
443.2042,750.0
443.2653,858.0
443.3265,751.0
443.3877,846.0
443.4488,749.0
443.5099,845.0
443.5711,739.0
443.6322,877.0
443.6934,749.0
443.7545,868.0
443.8156,776.0
443.8767,835.0
443.9378,762.0
443.9989,836.0
444.0601,750.0
444.1212,866.0
444.1822,793.0
444.2433,859.0
444.3044,818.0
444.3654,863.0
444.4265,771.0
444.4877,856.0
444.5487,807.0
444.6098,889.0
444.6708,811.0
444.7319,867.0
444.7929,776.0
444.854,845.0
444.915,826.0
444.9761,879.0
445.0371,755.0
445.0981,868.0
445.1592,754.0
445.2203,889.0
445.2812,797.0
445.3423,899.0
445.4033,766.0
445.4643,847.0
445.5253,810.0
445.5862,890.0
445.6473,767.0
445.7083,861.0
445.7693,815.0
445.8303,897.0
445.8912,815.0
445.9522,869.0
446.0132,828.0
446.0742,855.0
446.1352,798.0
446.1961,877.0
446.257,782.0
446.318,828.0
446.379,785.0
446.4399,805.0
446.5009,774.0
446.5618,841.0
446.6227,754.0
446.6836,850.0
446.7446,780.0
446.8055,841.0
446.8664,822.0
446.9273,843.0
446.9883,767.0
447.0491,860.0
447.11,766.0
447.171,829.0
447.2319,741.0
447.2927,873.0
447.3536,810.0
447.4145,851.0
447.4753,772.0
447.5363,826.0
447.5971,754.0
447.658,861.0
447.7188,751.0
447.7797,828.0
447.8405,753.0
447.9014,811.0
447.9623,736.0
448.0231,803.0
448.0839,738.0
448.1447,788.0
448.2056,739.0
448.2664,864.0
448.3272,769.0
448.3881,841.0
448.4489,714.0
448.5096,845.0
448.5705,730.0
448.6312,816.0
448.6921,736.0
448.7529,833.0
448.8137,718.0
448.8744,799.0
448.9352,722.0
448.9959,802.0
449.0567,762.0
449.1175,821.0
449.1783,715.0
449.239,803.0
449.2998,735.0
449.3605,809.0
449.4213,694.0
449.4821,815.0
449.5428,735.0
449.6035,813.0
449.6642,750.0
449.725,801.0
449.7857,753.0
449.8464,855.0
449.9071,680.0
449.9679,785.0
450.0285,782.0
450.0892,804.0
450.1499,745.0
450.2106,780.0
450.2714,724.0
450.332,807.0
450.3927,726.0
450.4534,844.0
450.514,758.0
450.5747,798.0
450.6354,741.0
450.696,829.0
450.7567,702.0
450.8174,763.0
450.878,757.0
450.9386,820.0
450.9993,730.0
451.0599,809.0
451.1206,711.0
451.1812,774.0
451.2418,754.0
451.3024,791.0
451.363,710.0
451.4236,779.0
451.4843,715.0
451.5449,825.0
451.6054,695.0
451.666,809.0
451.7267,737.0
451.7873,775.0
451.8478,698.0
451.9084,811.0
451.969,682.0
452.0295,824.0
452.0901,751.0
452.1507,781.0
452.2113,695.0
452.2718,789.0
452.3324,694.0
452.3929,783.0
452.4534,696.0
452.5139,775.0
452.5745,696.0
452.635,815.0
452.6956,719.0
452.7561,778.0
452.8166,743.0
452.8771,836.0
452.9377,715.0
452.9981,773.0
453.0586,707.0
453.1191,827.0
453.1796,732.0
453.2401,813.0
453.3006,746.0
453.3611,785.0
453.4216,723.0
453.4821,820.0
453.5425,736.0
453.6029,781.0
453.6634,756.0
453.7239,779.0
453.7844,770.0
453.8448,834.0
453.9052,748.0
453.9656,808.0
454.0261,747.0
454.0866,845.0
454.147,711.0
454.2074,840.0
454.2678,710.0
454.3282,801.0
454.3886,756.0
454.449,827.0
454.5095,726.0
454.5699,773.0
454.6302,762.0
454.6906,790.0
454.751,729.0
454.8114,837.0
454.8718,762.0
454.9322,821.0
454.9925,763.0
455.0529,796.0
455.1133,744.0
455.1736,829.0
455.234,748.0
455.2943,821.0
455.3547,782.0
455.415,858.0
455.4753,764.0
455.5357,816.0
455.5959,700.0
455.6563,805.0
455.7167,747.0
455.777,826.0
455.8373,748.0
455.8976,810.0
455.9579,766.0
456.0182,843.0
456.0785,719.0
456.1388,804.0
456.1991,755.0
456.2593,843.0
456.3196,705.0
456.3799,893.0
456.4402,754.0
456.5005,793.0
456.5607,795.0
456.621,810.0
456.6812,768.0
456.7414,821.0
456.8018,758.0
456.862,825.0
456.9222,733.0
456.9825,826.0
457.0426,724.0
457.1028,805.0
457.1631,730.0
457.2234,830.0
457.2835,743.0
457.3438,864.0
457.404,734.0
457.4641,837.0
457.5244,767.0
457.5846,831.0
457.6447,714.0
457.7049,873.0
457.7651,778.0
457.8253,839.0
457.8854,693.0
457.9456,807.0
458.0058,702.0
458.0659,813.0
458.1261,747.0
458.1862,810.0
458.2464,715.0
458.3066,875.0
458.3667,782.0
458.4268,807.0
458.4869,783.0
458.5471,741.0
458.6072,589.0
458.6674,689.0
458.7274,639.0
458.7876,709.0
458.8477,648.0
458.9077,678.0
458.9679,596.0
459.0279,697.0
459.0881,610.0
459.1481,702.0
459.2082,611.0
459.2683,706.0
459.3283,606.0
459.3884,723.0
459.4485,627.0
459.5086,687.0
459.5686,589.0
459.6287,659.0
459.6887,627.0
459.7487,723.0
459.8088,647.0
459.8688,716.0
459.9289,649.0
459.9889,725.0
460.0489,637.0
460.1089,727.0
460.1689,638.0
460.229,690.0
460.289,590.0
