Laser settings:
	Diode frequency:	5 Hz
	Pulses fired:		105
	Q-Switch blanking:	5
	Q-Switch delay:		201 μs
	Q-Switch presync:	1 μs
Spectrometer settings:
	Integration time:	0.0090 ms
	Integration delay:	0.000 ns
	Averaging:		1
	Trigger mode:		External
	Dynamic Dark Correction:		Disabled


wavelength,intensity
184.9409,623.0
185.0142,586.0
185.0875,648.0
185.1608,642.0
185.2341,676.0
185.3074,587.0
185.3807,707.0
185.454,600.0
185.5273,651.0
185.6006,634.0
185.6739,631.0
185.7472,603.0
185.8205,680.0
185.8938,655.0
185.9671,725.0
186.0403,621.0
186.1136,671.0
186.1869,646.0
186.2601,721.0
186.3334,614.0
186.4067,676.0
186.4799,591.0
186.5532,653.0
186.6265,600.0
186.6997,691.0
186.773,610.0
186.8462,689.0
186.9195,644.0
186.9928,674.0
187.066,627.0
187.1392,695.0
187.2125,626.0
187.2857,668.0
187.3589,655.0
187.4322,709.0
187.5054,655.0
187.5786,661.0
187.6519,630.0
187.7251,751.0
187.7983,604.0
187.8715,739.0
187.9447,594.0
188.018,717.0
188.0912,625.0
188.1644,712.0
188.2376,611.0
188.3108,703.0
188.384,636.0
188.4572,626.0
188.5304,708.0
188.6036,703.0
188.6768,641.0
188.75,748.0
188.8232,655.0
188.8963,708.0
188.9695,647.0
189.0427,740.0
189.1159,660.0
189.1891,709.0
189.2623,684.0
189.3354,727.0
189.4086,658.0
189.4818,750.0
189.5549,654.0
189.6281,722.0
189.7012,677.0
189.7744,733.0
189.8476,681.0
189.9207,765.0
189.9939,683.0
190.067,702.0
190.1402,696.0
190.2133,660.0
190.2864,660.0
190.3596,739.0
190.4327,683.0
190.5059,718.0
190.579,656.0
190.6521,728.0
190.7253,663.0
190.7984,681.0
190.8715,675.0
190.9446,736.0
191.0177,660.0
191.0908,693.0
191.164,622.0
191.2371,775.0
191.3102,700.0
191.3833,736.0
191.4564,640.0
191.5295,719.0
191.6026,629.0
191.6757,732.0
191.7488,698.0
191.8219,788.0
191.895,677.0
191.968,744.0
192.0411,672.0
192.1142,761.0
192.1873,628.0
192.2604,760.0
192.3334,662.0
192.4065,766.0
192.4796,716.0
192.5527,772.0
192.6257,662.0
192.6988,769.0
192.7718,725.0
192.8449,760.0
192.918,742.0
192.991,889.0
193.064,888.0
193.1371,960.0
193.2101,858.0
193.2832,903.0
193.3562,794.0
193.4292,814.0
193.5023,714.0
193.5753,813.0
193.6484,731.0
193.7214,795.0
193.7944,727.0
193.8674,807.0
193.9405,676.0
194.0135,773.0
194.0865,695.0
194.1595,801.0
194.2325,703.0
194.3055,774.0
194.3785,722.0
194.4515,789.0
194.5246,708.0
194.5975,775.0
194.6705,687.0
194.7435,741.0
194.8165,688.0
194.8895,772.0
194.9625,669.0
195.0355,763.0
195.1085,690.0
195.1815,740.0
195.2544,682.0
195.3274,774.0
195.4004,705.0
195.4734,759.0
195.5463,640.0
195.6193,797.0
195.6923,747.0
195.7652,758.0
195.8382,713.0
195.9111,762.0
195.9841,720.0
196.057,817.0
196.13,729.0
196.2029,770.0
196.2759,717.0
196.3488,726.0
196.4218,696.0
196.4947,776.0
196.5676,739.0
196.6406,788.0
196.7135,669.0
196.7864,822.0
196.8593,706.0
196.9323,763.0
197.0052,782.0
197.0781,790.0
197.151,665.0
197.2239,735.0
197.2969,675.0
197.3697,781.0
197.4427,687.0
197.5156,774.0
197.5885,729.0
197.6614,779.0
197.7343,652.0
197.8072,829.0
197.88,695.0
197.9529,748.0
198.0258,677.0
198.0987,774.0
198.1716,714.0
198.2445,735.0
198.3173,730.0
198.3902,746.0
198.4631,713.0
198.5359,773.0
198.6088,651.0
198.6817,791.0
198.7545,741.0
198.8274,786.0
198.9003,666.0
198.9731,775.0
199.046,695.0
199.1188,782.0
199.1917,715.0
199.2645,763.0
199.3373,673.0
199.4102,743.0
199.483,687.0
199.5559,755.0
199.6287,727.0
199.7015,818.0
199.7744,761.0
199.8472,769.0
199.92,687.0
199.9928,759.0
200.0656,665.0
200.1385,760.0
200.2113,678.0
200.2841,765.0
200.3569,655.0
200.4297,802.0
200.5025,670.0
200.5753,765.0
200.6481,710.0
200.7209,755.0
200.7937,715.0
200.8665,739.0
200.9393,688.0
201.0121,783.0
201.0848,699.0
201.1576,813.0
201.2304,691.0
201.3032,774.0
201.3759,681.0
201.4487,757.0
201.5215,706.0
201.5943,765.0
201.667,723.0
201.7398,724.0
201.8125,706.0
201.8853,783.0
201.958,668.0
202.0308,755.0
202.1035,716.0
202.1763,761.0
202.249,699.0
202.3218,754.0
202.3945,677.0
202.4673,778.0
202.54,712.0
202.6127,751.0
202.6855,683.0
202.7582,786.0
202.8309,687.0
202.9036,742.0
202.9764,643.0
203.0491,797.0
203.1218,679.0
203.1945,763.0
203.2672,745.0
203.3399,773.0
203.4126,664.0
203.4853,767.0
203.558,683.0
203.6307,774.0
203.7034,684.0
203.7761,734.0
203.8488,711.0
203.9215,769.0
203.9942,663.0
204.0669,706.0
204.1395,681.0
204.2122,765.0
204.2849,674.0
204.3576,761.0
204.4302,683.0
204.5029,806.0
204.5756,734.0
204.6482,753.0
204.7209,686.0
204.7935,759.0
204.8662,671.0
204.9389,777.0
205.0115,676.0
205.0842,777.0
205.1568,713.0
205.2294,737.0
205.3021,708.0
205.3747,742.0
205.4474,710.0
205.52,738.0
205.5926,642.0
205.6653,782.0
205.7379,691.0
205.8105,733.0
205.8831,711.0
205.9557,715.0
206.0284,697.0
206.101,763.0
206.1736,664.0
206.2462,769.0
206.3188,723.0
206.3914,754.0
206.464,697.0
206.5366,760.0
206.6092,680.0
206.6818,749.0
206.7544,723.0
206.827,790.0
206.8996,670.0
206.9721,764.0
207.0447,716.0
207.1173,749.0
207.1899,707.0
207.2625,787.0
207.335,678.0
207.4076,792.0
207.4802,714.0
207.5527,771.0
207.6253,683.0
207.6978,815.0
207.7704,724.0
207.843,771.0
207.9155,731.0
207.9881,749.0
208.0606,739.0
208.1331,772.0
208.2057,701.0
208.2782,783.0
208.3508,728.0
208.4233,793.0
208.4958,712.0
208.5684,776.0
208.6409,689.0
208.7134,748.0
208.7859,696.0
208.8584,796.0
208.931,676.0
209.0035,760.0
209.076,702.0
209.1485,798.0
209.221,728.0
209.2935,722.0
209.366,736.0
209.4385,771.0
209.511,683.0
209.5835,850.0
209.656,703.0
209.7285,732.0
209.801,659.0
209.8735,779.0
209.9459,723.0
210.0184,755.0
210.0909,680.0
210.1634,787.0
210.2358,695.0
210.3083,719.0
210.3808,671.0
210.4532,726.0
210.5257,643.0
210.5982,755.0
210.6706,721.0
210.7431,717.0
210.8155,711.0
210.888,727.0
210.9604,637.0
211.0329,712.0
211.1053,678.0
211.1777,729.0
211.2502,691.0
211.3226,740.0
211.3951,670.0
211.4675,739.0
211.5399,692.0
211.6123,787.0
211.6847,684.0
211.7572,747.0
211.8296,707.0
211.902,792.0
211.9744,695.0
212.0468,738.0
212.1192,663.0
212.1917,759.0
212.264,684.0
212.3364,749.0
212.4088,703.0
212.4812,773.0
212.5536,675.0
212.626,772.0
212.6984,714.0
212.7708,747.0
212.8432,700.0
212.9155,809.0
212.9879,708.0
213.0603,775.0
213.1326,695.0
213.205,758.0
213.2774,684.0
213.3498,772.0
213.4221,715.0
213.4945,767.0
213.5668,707.0
213.6392,750.0
213.7115,664.0
213.7839,779.0
213.8562,677.0
213.9286,725.0
214.0009,711.0
214.0732,762.0
214.1456,729.0
214.2179,756.0
214.2903,692.0
214.3626,735.0
214.4349,691.0
214.5072,784.0
214.5796,700.0
214.6519,764.0
214.7242,725.0
214.7965,765.0
214.8688,700.0
214.9411,752.0
215.0134,694.0
215.0857,804.0
215.158,692.0
215.2303,758.0
215.3026,776.0
215.3749,787.0
215.4472,712.0
215.5195,778.0
215.5918,699.0
215.6641,768.0
215.7363,719.0
215.8086,792.0
215.8809,729.0
215.9532,753.0
216.0254,704.0
216.0977,767.0
216.17,664.0
216.2422,776.0
216.3145,678.0
216.3867,814.0
216.459,723.0
216.5313,782.0
216.6035,692.0
216.6758,755.0
216.748,695.0
216.8202,759.0
216.8925,735.0
216.9647,788.0
217.037,733.0
217.1092,813.0
217.1814,707.0
217.2536,791.0
217.3259,734.0
217.3981,816.0
217.4703,686.0
217.5425,753.0
217.6147,751.0
217.687,857.0
217.7592,758.0
217.8314,831.0
217.9035,722.0
217.9758,793.0
218.048,732.0
218.1201,775.0
218.1924,709.0
218.2645,799.0
218.3367,702.0
218.4089,792.0
218.4811,715.0
218.5533,772.0
218.6255,693.0
218.6976,773.0
218.7698,700.0
218.842,793.0
218.9142,732.0
218.9863,756.0
219.0585,730.0
219.1306,804.0
219.2028,728.0
219.2749,764.0
219.3471,740.0
219.4193,799.0
219.4914,728.0
219.5636,800.0
219.6357,752.0
219.7078,766.0
219.78,711.0
219.8521,796.0
219.9242,730.0
219.9964,818.0
220.0685,739.0
220.1406,809.0
220.2128,746.0
220.2849,805.0
220.357,743.0
220.4291,779.0
220.5012,742.0
220.5733,807.0
220.6454,756.0
220.7175,815.0
220.7896,787.0
220.8617,833.0
220.9338,739.0
221.0059,800.0
221.078,751.0
221.1501,807.0
221.2222,756.0
221.2943,829.0
221.3663,728.0
221.4384,811.0
221.5105,743.0
221.5826,798.0
221.6546,748.0
221.7267,792.0
221.7988,759.0
221.8708,821.0
221.9429,741.0
222.015,786.0
222.087,716.0
222.1591,819.0
222.2311,768.0
222.3032,814.0
222.3752,703.0
222.4473,810.0
222.5193,711.0
222.5913,820.0
222.6634,737.0
222.7354,835.0
222.8074,727.0
222.8795,825.0
222.9515,748.0
223.0235,760.0
223.0955,749.0
223.1675,785.0
223.2395,756.0
223.3116,788.0
223.3836,738.0
223.4556,802.0
223.5276,766.0
223.5996,794.0
223.6716,742.0
223.7436,801.0
223.8156,741.0
223.8876,837.0
223.9595,731.0
224.0315,781.0
224.1035,726.0
224.1755,808.0
224.2475,788.0
224.3195,803.0
224.3914,788.0
224.4634,835.0
224.5354,720.0
224.6073,792.0
224.6793,743.0
224.7512,806.0
224.8232,723.0
224.8952,842.0
224.9671,744.0
225.0391,817.0
225.111,773.0
225.1829,879.0
225.2549,771.0
225.3268,844.0
225.3988,760.0
225.4707,804.0
225.5426,773.0
225.6146,839.0
225.6865,768.0
225.7584,852.0
225.8303,774.0
225.9022,818.0
225.9742,799.0
226.0461,832.0
226.118,760.0
226.1899,863.0
226.2618,755.0
226.3337,845.0
226.4056,760.0
226.4775,906.0
226.5494,753.0
226.6213,841.0
226.6932,732.0
226.7651,812.0
226.8369,753.0
226.9088,822.0
226.9807,804.0
227.0526,876.0
227.1245,758.0
227.1963,836.0
227.2682,767.0
227.3401,866.0
227.4119,726.0
227.4838,821.0
227.5556,776.0
227.6275,821.0
227.6993,769.0
227.7712,867.0
227.8431,756.0
227.9149,834.0
227.9867,740.0
228.0586,774.0
228.1304,775.0
228.2023,862.0
228.2741,781.0
228.3459,846.0
228.4177,755.0
228.4896,809.0
228.5614,767.0
228.6332,778.0
228.705,783.0
228.7768,859.0
228.8486,772.0
228.9205,855.0
228.9923,765.0
229.0641,861.0
229.1359,769.0
229.2077,860.0
229.2794,787.0
229.3513,932.0
229.423,894.0
229.4948,1016.0
229.5666,996.0
229.6384,1141.0
229.7102,1130.0
229.782,1033.0
229.8537,916.0
229.9255,858.0
229.9973,786.0
230.069,799.0
230.1408,762.0
230.2126,798.0
230.2843,737.0
230.3561,811.0
230.4278,757.0
230.4996,787.0
230.5713,733.0
230.6431,810.0
230.7148,753.0
230.7866,786.0
230.8583,729.0
230.93,822.0
231.0018,765.0
231.0735,844.0
231.1452,715.0
231.2169,784.0
231.2887,729.0
231.3604,842.0
231.4321,718.0
231.5038,779.0
231.5755,780.0
231.6472,804.0
231.7189,735.0
231.7906,815.0
231.8624,725.0
231.9341,802.0
232.0057,764.0
232.0774,813.0
232.1491,761.0
232.2208,848.0
232.2925,745.0
232.3642,804.0
232.4359,736.0
232.5075,872.0
232.5792,752.0
232.6509,830.0
232.7225,762.0
232.7942,802.0
232.8659,694.0
232.9375,774.0
233.0092,725.0
233.0809,829.0
233.1525,769.0
233.2242,825.0
233.2958,755.0
233.3675,844.0
233.4391,762.0
233.5107,802.0
233.5824,708.0
233.654,795.0
233.7256,708.0
233.7973,795.0
233.8689,751.0
233.9405,838.0
234.0121,775.0
234.0838,818.0
234.1554,755.0
234.227,865.0
234.2986,729.0
234.3702,841.0
234.4418,707.0
234.5134,779.0
234.585,744.0
234.6566,776.0
234.7282,716.0
234.7998,807.0
234.8714,717.0
234.943,798.0
235.0146,760.0
235.0862,794.0
235.1577,747.0
235.2293,758.0
235.3009,657.0
235.3725,800.0
235.444,739.0
235.5156,829.0
235.5872,695.0
235.6587,766.0
235.7303,734.0
235.8018,821.0
235.8734,736.0
235.9449,789.0
236.0165,785.0
236.088,809.0
236.1596,770.0
236.2311,808.0
236.3026,732.0
236.3742,812.0
236.4457,710.0
236.5172,801.0
236.5887,764.0
236.6603,796.0
236.7318,714.0
236.8033,833.0
236.8748,752.0
236.9464,776.0
237.0179,734.0
237.0894,779.0
237.1609,788.0
237.2324,790.0
237.3039,760.0
237.3754,797.0
237.4469,765.0
237.5184,852.0
237.5898,763.0
237.6613,838.0
237.7328,752.0
237.8043,870.0
237.8758,786.0
237.9472,805.0
238.0187,745.0
238.0902,854.0
238.1617,763.0
238.2331,853.0
238.3046,744.0
238.376,854.0
238.4475,755.0
238.519,849.0
238.5904,816.0
238.6618,824.0
238.7333,775.0
238.8047,855.0
238.8762,780.0
238.9476,846.0
239.0191,772.0
239.0905,851.0
239.1619,765.0
239.2334,832.0
239.3048,735.0
239.3762,882.0
239.4476,787.0
239.519,838.0
239.5904,776.0
239.6619,871.0
239.7333,725.0
239.8047,847.0
239.8761,781.0
239.9475,878.0
240.0189,761.0
240.0903,902.0
240.1617,781.0
240.233,864.0
240.3044,717.0
240.3758,860.0
240.4472,779.0
240.5186,842.0
240.59,796.0
240.6613,864.0
240.7327,768.0
240.8041,831.0
240.8754,743.0
240.9468,836.0
241.0181,744.0
241.0895,830.0
241.1609,789.0
241.2322,795.0
241.3036,748.0
241.3749,880.0
241.4462,821.0
241.5176,840.0
241.5889,797.0
241.6602,836.0
241.7316,776.0
241.8029,842.0
241.8743,728.0
241.9456,814.0
242.0169,744.0
242.0882,832.0
242.1595,783.0
242.2309,868.0
242.3022,797.0
242.3735,860.0
242.4448,764.0
242.5161,839.0
242.5874,820.0
242.6587,790.0
242.73,790.0
242.8013,844.0
242.8726,769.0
242.9438,886.0
243.0151,777.0
243.0864,851.0
243.1577,754.0
243.229,854.0
243.3002,779.0
243.3715,812.0
243.4428,795.0
243.5141,801.0
243.5853,769.0
243.6566,843.0
243.7278,762.0
243.7991,839.0
243.8703,770.0
243.9416,872.0
244.0128,783.0
244.0841,841.0
244.1553,783.0
244.2266,865.0
244.2978,754.0
244.369,871.0
244.4402,728.0
244.5115,815.0
244.5827,754.0
244.6539,869.0
244.7251,799.0
244.7964,812.0
244.8676,799.0
244.9388,877.0
245.01,778.0
245.0812,873.0
245.1524,798.0
245.2236,847.0
245.2948,808.0
245.366,829.0
245.4372,730.0
245.5084,885.0
245.5796,747.0
245.6507,800.0
245.7219,764.0
245.7931,877.0
245.8643,748.0
245.9355,859.0
246.0066,790.0
246.0778,794.0
246.149,766.0
246.2201,826.0
246.2913,759.0
246.3624,833.0
246.4336,773.0
246.5047,853.0
246.5759,725.0
246.647,809.0
246.7182,724.0
246.7893,830.0
246.8605,770.0
246.9316,848.0
247.0027,714.0
247.0739,810.0
247.145,733.0
247.2161,837.0
247.2872,766.0
247.3584,825.0
247.4295,763.0
247.5006,872.0
247.5717,812.0
247.6428,901.0
247.7139,874.0
247.785,991.0
247.8561,1026.0
247.9272,1200.0
247.9983,1004.0
248.0694,1005.0
248.1405,883.0
248.2116,907.0
248.2827,822.0
248.3537,880.0
248.4248,796.0
248.4959,839.0
248.5669,743.0
248.638,863.0
248.7091,726.0
248.7802,820.0
248.8512,759.0
248.9223,855.0
248.9933,753.0
249.0644,773.0
249.1354,746.0
249.2065,837.0
249.2775,801.0
249.3486,852.0
249.4196,680.0
249.4906,837.0
249.5617,768.0
249.6327,820.0
249.7037,712.0
249.7747,852.0
249.8458,764.0
249.9168,844.0
249.9878,752.0
250.0588,826.0
250.1298,784.0
250.2009,840.0
250.2719,798.0
250.3429,828.0
250.4138,739.0
250.4849,830.0
250.5558,754.0
250.6268,837.0
250.6978,790.0
250.7688,835.0
250.8398,787.0
250.9108,949.0
250.9818,838.0
251.0527,943.0
251.1237,843.0
251.1947,931.0
251.2657,882.0
251.3366,871.0
251.4076,791.0
251.4785,851.0
251.5495,759.0
251.6205,825.0
251.6914,767.0
251.7623,867.0
251.8333,767.0
251.9042,807.0
251.9752,724.0
252.0461,875.0
252.1171,745.0
252.188,797.0
252.2589,731.0
252.3298,834.0
252.4008,737.0
252.4717,844.0
252.5426,730.0
252.6135,839.0
252.6844,741.0
252.7553,822.0
252.8262,734.0
252.8971,831.0
252.9681,731.0
253.039,802.0
253.1098,699.0
253.1808,813.0
253.2516,731.0
253.3225,779.0
253.3934,749.0
253.4643,791.0
253.5352,740.0
253.606,787.0
253.6769,749.0
253.7478,834.0
253.8187,771.0
253.8895,788.0
253.9604,743.0
254.0312,816.0
254.1021,711.0
254.173,797.0
254.2438,742.0
254.3147,851.0
254.3855,734.0
254.4563,805.0
254.5272,734.0
254.598,843.0
254.6689,723.0
254.7397,793.0
254.8105,746.0
254.8813,799.0
254.9522,751.0
255.023,835.0
255.0938,748.0
255.1646,817.0
255.2354,753.0
255.3062,869.0
255.3771,711.0
255.4479,818.0
255.5187,730.0
255.5894,824.0
255.6603,796.0
255.731,833.0
255.8018,765.0
255.8726,867.0
255.9434,744.0
256.0142,812.0
256.085,722.0
256.1558,846.0
256.2265,737.0
256.2973,856.0
256.3681,762.0
256.4388,859.0
256.5096,705.0
256.5804,826.0
256.6511,740.0
256.7219,829.0
256.7926,745.0
256.8634,854.0
256.9341,789.0
257.0049,892.0
257.0756,760.0
257.1463,848.0
257.2171,793.0
257.2878,840.0
257.3585,778.0
257.4292,868.0
257.5,766.0
257.5707,838.0
257.6414,738.0
257.7122,825.0
257.7828,710.0
257.8535,817.0
257.9243,739.0
257.995,849.0
258.0657,798.0
258.1364,767.0
258.2071,780.0
258.2777,823.0
258.3484,744.0
258.4191,825.0
258.4898,739.0
258.5605,834.0
258.6312,717.0
258.7018,862.0
258.7725,754.0
258.8432,783.0
258.9139,721.0
258.9845,790.0
259.0552,713.0
259.1259,819.0
259.1965,733.0
259.2672,812.0
259.3378,759.0
259.4085,836.0
259.4791,733.0
259.5497,772.0
259.6204,648.0
259.691,815.0
259.7617,726.0
259.8323,822.0
259.9029,752.0
259.9735,818.0
260.0442,735.0
260.1147,765.0
260.1854,747.0
260.256,782.0
260.3267,735.0
260.3972,877.0
260.4678,740.0
260.5384,807.0
260.6091,713.0
260.6796,857.0
260.7502,724.0
260.8208,802.0
260.8914,735.0
260.962,794.0
261.0326,746.0
261.1032,816.0
261.1737,783.0
261.2444,833.0
261.3149,717.0
261.3854,813.0
261.456,732.0
261.5266,859.0
261.5971,758.0
261.6677,810.0
261.7383,766.0
261.8088,822.0
261.8794,713.0
261.9499,773.0
262.0205,789.0
262.091,811.0
262.1615,755.0
262.2321,874.0
262.3026,768.0
262.3731,852.0
262.4437,729.0
262.5142,849.0
262.5847,763.0
262.6552,832.0
262.7257,774.0
262.7962,840.0
262.8668,746.0
262.9373,853.0
263.0078,806.0
263.0783,841.0
263.1488,772.0
263.2193,817.0
263.2898,730.0
263.3603,879.0
263.4307,784.0
263.5012,848.0
263.5717,812.0
263.6422,837.0
263.7127,785.0
263.7831,844.0
263.8536,764.0
263.9241,864.0
263.9945,816.0
264.065,866.0
264.1354,716.0
264.2059,810.0
264.2764,756.0
264.3468,836.0
264.4173,689.0
264.4877,872.0
264.5581,681.0
264.6286,844.0
264.699,810.0
264.7694,808.0
264.8399,752.0
264.9103,844.0
264.9807,746.0
265.0511,849.0
265.1216,772.0
265.192,830.0
265.2625,690.0
265.3328,815.0
265.4032,690.0
265.4736,814.0
265.5441,763.0
265.6144,797.0
265.6848,727.0
265.7552,789.0
265.8256,717.0
265.896,839.0
265.9664,740.0
266.0368,815.0
266.1071,730.0
266.1775,798.0
266.2479,721.0
266.3183,730.0
266.3886,735.0
266.459,813.0
266.5294,733.0
266.5998,814.0
266.6701,747.0
266.7404,831.0
266.8108,740.0
266.8812,748.0
266.9515,691.0
267.0219,815.0
267.0922,719.0
267.1625,836.0
267.2328,770.0
267.3032,825.0
267.3735,723.0
267.4438,763.0
267.5142,678.0
267.5845,813.0
267.6548,766.0
267.7251,801.0
267.7954,709.0
267.8657,783.0
267.936,718.0
268.0063,799.0
268.0766,708.0
268.1469,818.0
268.2172,737.0
268.2875,801.0
268.3578,725.0
268.4281,808.0
268.4984,711.0
268.5686,776.0
268.6389,732.0
268.7092,804.0
268.7794,734.0
268.8498,845.0
268.92,696.0
268.9902,822.0
269.0605,728.0
269.1308,777.0
269.201,758.0
269.2713,800.0
269.3415,731.0
269.4118,834.0
269.482,708.0
269.5523,829.0
269.6225,712.0
269.6927,811.0
269.7629,737.0
269.8332,774.0
269.9034,680.0
269.9736,794.0
270.0439,725.0
270.114,806.0
270.1843,779.0
270.2545,776.0
270.3247,717.0
270.3949,786.0
270.4651,739.0
270.5353,787.0
270.6055,730.0
270.6757,810.0
270.7459,747.0
270.8161,803.0
270.8863,765.0
270.9564,807.0
271.0266,759.0
271.0968,813.0
271.167,729.0
271.2371,856.0
271.3073,755.0
271.3775,873.0
271.4476,724.0
271.5178,836.0
271.588,844.0
271.6581,817.0
271.7282,750.0
271.7984,818.0
271.8685,756.0
271.9387,810.0
272.0088,756.0
272.0789,849.0
272.1491,763.0
272.2192,850.0
272.2893,791.0
272.3595,858.0
272.4296,728.0
272.4997,871.0
272.5698,723.0
272.64,863.0
272.7101,777.0
272.7802,848.0
272.8503,773.0
272.9204,855.0
272.9904,747.0
273.0605,900.0
273.1306,782.0
273.2007,806.0
273.2708,749.0
273.3409,865.0
273.411,726.0
273.481,823.0
273.5511,745.0
273.6212,854.0
273.6913,770.0
273.7614,849.0
273.8314,785.0
273.9015,854.0
273.9715,805.0
274.0416,855.0
274.1116,750.0
274.1817,848.0
274.2517,793.0
274.3217,892.0
274.3918,773.0
274.4619,877.0
274.5319,772.0
274.602,854.0
274.6719,842.0
274.742,862.0
274.812,802.0
274.882,844.0
274.952,763.0
275.0221,893.0
275.0921,787.0
275.1621,863.0
275.2321,798.0
275.3021,895.0
275.3721,756.0
275.4421,843.0
275.5121,743.0
275.5821,905.0
275.6521,755.0
275.722,882.0
275.792,809.0
275.862,837.0
275.932,754.0
276.002,863.0
276.0719,763.0
276.1418,832.0
276.2119,752.0
276.2818,897.0
276.3517,743.0
276.4218,837.0
276.4917,782.0
276.5616,852.0
276.6316,732.0
276.7015,871.0
276.7715,824.0
276.8414,851.0
276.9113,700.0
276.9813,802.0
277.0512,763.0
277.1211,826.0
277.191,763.0
277.261,830.0
277.3309,759.0
277.4008,857.0
277.4707,767.0
277.5406,873.0
277.6105,753.0
277.6804,789.0
277.7503,768.0
277.8202,833.0
277.8901,804.0
277.96,874.0
278.0299,768.0
278.0998,816.0
278.1697,754.0
278.2396,814.0
278.3094,775.0
278.3793,872.0
278.4492,756.0
278.519,797.0
278.5889,767.0
278.6588,877.0
278.7286,782.0
278.7985,834.0
278.8683,794.0
278.9382,837.0
279.0081,786.0
279.0779,849.0
279.1477,727.0
279.2176,809.0
279.2874,742.0
279.3572,851.0
279.4271,806.0
279.4969,881.0
279.5667,790.0
279.6365,875.0
279.7063,775.0
279.7762,857.0
279.846,764.0
279.9158,817.0
279.9856,809.0
280.0554,841.0
280.1252,804.0
280.195,842.0
280.2648,772.0
280.3346,818.0
280.4044,796.0
280.4742,872.0
280.544,807.0
280.6137,864.0
280.6835,813.0
280.7533,820.0
280.8231,772.0
280.8928,859.0
280.9626,812.0
281.0323,836.0
281.1021,802.0
281.1719,878.0
281.2416,833.0
281.3114,884.0
281.3811,796.0
281.4509,897.0
281.5206,799.0
281.5904,886.0
281.6601,790.0
281.7299,932.0
281.7996,758.0
281.8693,853.0
281.939,805.0
282.0088,887.0
282.0784,730.0
282.1482,843.0
282.2179,790.0
282.2876,840.0
282.3573,803.0
282.427,841.0
282.4967,827.0
282.5664,831.0
282.6361,782.0
282.7058,829.0
282.7755,810.0
282.8452,901.0
282.9149,789.0
282.9845,875.0
283.0542,756.0
283.1239,853.0
283.1936,820.0
283.2632,896.0
283.3329,767.0
283.4026,896.0
283.4722,794.0
283.5419,886.0
283.6115,820.0
283.6812,921.0
283.7508,834.0
283.8205,901.0
283.8901,815.0
283.9597,860.0
284.0294,796.0
284.099,871.0
284.1686,848.0
284.2383,885.0
284.3079,790.0
284.3775,848.0
284.4471,791.0
284.5168,902.0
284.5864,762.0
284.656,855.0
284.7256,768.0
284.7952,871.0
284.8648,813.0
284.9344,891.0
285.004,793.0
285.0736,878.0
285.1432,747.0
285.2128,868.0
285.2823,787.0
285.3519,902.0
285.4215,761.0
285.4911,881.0
285.5606,786.0
285.6302,823.0
285.6998,779.0
285.7693,814.0
285.8389,794.0
285.9084,799.0
285.978,781.0
286.0475,819.0
286.1171,789.0
286.1866,863.0
286.2562,797.0
286.3257,854.0
286.3952,829.0
286.4648,856.0
286.5343,777.0
286.6039,836.0
286.6733,787.0
286.7429,886.0
286.8124,714.0
286.8819,850.0
286.9514,750.0
287.0209,889.0
287.0904,763.0
287.1599,873.0
287.2294,821.0
287.299,851.0
287.3684,778.0
287.4379,871.0
287.5074,740.0
287.5769,870.0
287.6464,781.0
287.7159,881.0
287.7853,793.0
287.8548,836.0
287.9243,789.0
287.9937,834.0
288.0632,796.0
288.1327,858.0
288.2021,720.0
288.2716,816.0
288.341,773.0
288.4105,842.0
288.4799,751.0
288.5493,904.0
288.6188,742.0
288.6882,844.0
288.7577,771.0
288.8271,879.0
288.8965,768.0
288.9659,913.0
289.0354,780.0
289.1048,827.0
289.1742,741.0
289.2436,826.0
289.313,756.0
289.3824,834.0
289.4518,823.0
289.5212,880.0
289.5906,715.0
289.66,860.0
289.7294,785.0
289.7988,863.0
289.8682,832.0
289.9376,857.0
290.007,780.0
290.0764,846.0
290.1457,819.0
290.2151,880.0
290.2844,736.0
290.3538,886.0
290.4232,779.0
290.4925,865.0
290.5619,744.0
290.6312,872.0
290.7006,783.0
290.7699,877.0
290.8393,784.0
290.9086,900.0
290.978,838.0
291.0473,887.0
291.1166,810.0
291.1859,880.0
291.2553,750.0
291.3246,895.0
291.3939,815.0
291.4632,879.0
291.5325,768.0
291.6018,897.0
291.6712,805.0
291.7405,867.0
291.8098,817.0
291.8791,890.0
291.9484,804.0
292.0176,850.0
292.0869,817.0
292.1562,848.0
292.2255,821.0
292.2948,886.0
292.3641,835.0
292.4334,916.0
292.5026,820.0
292.5719,932.0
292.6412,785.0
292.7104,897.0
292.7797,814.0
292.8489,902.0
292.9182,800.0
292.9875,866.0
293.0567,760.0
293.1259,893.0
293.1952,837.0
293.2644,904.0
293.3336,791.0
293.4029,896.0
293.4721,780.0
293.5413,900.0
293.6106,820.0
293.6798,891.0
293.749,768.0
293.8182,900.0
293.8875,784.0
293.9566,874.0
294.0259,813.0
294.0951,872.0
294.1642,790.0
294.2334,854.0
294.3026,773.0
294.3718,892.0
294.441,802.0
294.5102,919.0
294.5794,797.0
294.6485,874.0
294.7177,768.0
294.7869,883.0
294.8561,801.0
294.9253,878.0
294.9944,755.0
295.0636,912.0
295.1327,811.0
295.2019,876.0
295.271,799.0
295.3402,851.0
295.4093,812.0
295.4785,873.0
295.5476,822.0
295.6168,919.0
295.6859,795.0
295.755,836.0
295.8241,770.0
295.8932,913.0
295.9623,799.0
296.0315,917.0
296.1006,806.0
296.1697,883.0
296.2388,800.0
296.3079,869.0
296.377,832.0
296.4461,949.0
296.5152,807.0
296.5843,854.0
296.6534,766.0
296.7225,904.0
296.7916,820.0
296.8606,887.0
296.9297,799.0
296.9988,885.0
297.0679,778.0
297.137,904.0
297.206,809.0
297.2751,885.0
297.3441,806.0
297.4132,877.0
297.4823,792.0
297.5513,876.0
297.6204,808.0
297.6894,867.0
297.7584,770.0
297.8275,884.0
297.8965,820.0
297.9655,882.0
298.0346,821.0
298.1036,857.0
298.1726,816.0
298.2417,884.0
298.3106,781.0
298.3797,838.0
298.4487,820.0
298.5177,882.0
298.5867,826.0
298.6557,892.0
298.7247,779.0
298.7937,884.0
298.8627,865.0
298.9317,919.0
299.0007,786.0
299.0696,853.0
299.1386,770.0
299.2076,876.0
299.2766,849.0
299.3456,867.0
299.4145,824.0
299.4835,847.0
299.5524,810.0
299.6214,866.0
299.6903,773.0
299.7593,906.0
299.8282,851.0
299.8972,885.0
299.9661,811.0
300.0351,896.0
300.104,779.0
300.173,903.0
300.2419,802.0
300.3108,889.0
300.3797,794.0
300.4487,943.0
300.5176,781.0
300.5865,883.0
300.6554,810.0
300.7243,917.0
300.7932,799.0
300.8621,878.0
300.931,831.0
300.9999,893.0
301.0688,826.0
301.1377,897.0
301.2066,841.0
301.2755,907.0
301.3444,790.0
301.4132,903.0
301.4821,802.0
301.551,900.0
301.6199,881.0
301.6887,947.0
301.7576,817.0
301.8265,945.0
301.8953,822.0
301.9642,902.0
302.033,823.0
302.1019,902.0
302.1707,770.0
302.2396,911.0
302.3084,843.0
302.3772,871.0
302.4461,853.0
302.5149,873.0
302.5837,831.0
302.6526,905.0
302.7214,835.0
302.7902,894.0
302.859,808.0
302.9278,893.0
302.9966,870.0
303.0654,965.0
303.1342,817.0
303.203,874.0
303.2718,786.0
303.3406,919.0
303.4094,802.0
303.4781,884.0
303.547,857.0
303.6158,899.0
303.6845,835.0
303.7533,919.0
303.8221,834.0
303.8908,914.0
303.9596,789.0
304.0284,929.0
304.0971,859.0
304.1659,931.0
304.2346,833.0
304.3034,878.0
304.3721,802.0
304.4409,897.0
304.5096,807.0
304.5784,926.0
304.6471,803.0
304.7158,903.0
304.7845,820.0
304.8533,909.0
304.922,791.0
304.9907,877.0
305.0594,837.0
305.1281,950.0
305.1969,820.0
305.2656,893.0
305.3343,806.0
305.403,878.0
305.4717,813.0
305.5403,896.0
305.609,778.0
305.6778,881.0
305.7464,807.0
305.8151,898.0
305.8838,806.0
305.9525,915.0
306.0211,794.0
306.0898,899.0
306.1585,829.0
306.2271,883.0
306.2958,825.0
306.3645,913.0
306.4331,839.0
306.5017,878.0
306.5704,835.0
306.6391,914.0
306.7077,802.0
306.7763,899.0
306.845,831.0
306.9136,901.0
306.9822,827.0
307.0508,893.0
307.1195,843.0
307.1881,871.0
307.2567,796.0
307.3253,891.0
307.3939,844.0
307.4625,915.0
307.5312,799.0
307.5998,930.0
307.6684,809.0
307.7369,866.0
307.8055,781.0
307.8741,919.0
307.9427,811.0
308.0113,908.0
308.0799,797.0
308.1484,890.0
308.217,795.0
308.2856,871.0
308.3542,838.0
308.4227,888.0
308.4913,783.0
308.5598,905.0
308.6284,757.0
308.6969,915.0
308.7655,794.0
308.834,935.0
308.9026,812.0
308.9711,852.0
309.0396,763.0
309.1082,897.0
309.1767,757.0
309.2452,886.0
309.3138,764.0
309.3823,889.0
309.4508,814.0
309.5193,870.0
309.5878,841.0
309.6563,882.0
309.7249,772.0
309.7933,893.0
309.8618,831.0
309.9303,896.0
309.9988,815.0
310.0673,912.0
310.1358,814.0
310.2043,815.0
310.2728,844.0
310.3412,909.0
310.4097,756.0
310.4781,877.0
310.5466,799.0
310.6151,894.0
310.6836,854.0
310.752,870.0
310.8205,814.0
310.8889,903.0
310.9574,799.0
311.0258,901.0
311.0943,819.0
311.1627,867.0
311.2311,789.0
311.2996,851.0
311.368,822.0
311.4364,875.0
311.5049,785.0
311.5733,912.0
311.6417,789.0
311.7101,871.0
311.7785,831.0
311.8469,852.0
311.9153,848.0
311.9837,910.0
312.0521,785.0
312.1205,873.0
312.1889,760.0
312.2573,874.0
312.3257,787.0
312.3941,878.0
312.4624,826.0
312.5308,844.0
312.5992,747.0
312.6675,855.0
312.7359,771.0
312.8043,855.0
312.8727,754.0
312.941,873.0
313.0093,777.0
313.0777,809.0
313.1461,801.0
313.2144,869.0
313.2827,756.0
313.3511,862.0
313.4194,740.0
313.4877,838.0
313.5561,746.0
313.6244,882.0
313.6927,757.0
313.761,840.0
313.8294,725.0
313.8977,809.0
313.966,699.0
314.0343,872.0
314.1026,802.0
314.1709,842.0
314.2392,780.0
314.3075,847.0
314.3758,782.0
314.4441,845.0
314.5124,753.0
314.5806,868.0
314.6489,747.0
314.7172,855.0
314.7855,746.0
314.8537,812.0
314.922,746.0
314.9903,869.0
315.0585,739.0
315.1268,881.0
315.195,784.0
315.2633,885.0
315.3315,852.0
315.3998,867.0
315.468,804.0
315.5362,874.0
315.6045,780.0
315.6727,838.0
315.7409,795.0
315.8092,890.0
315.8774,843.0
315.9456,862.0
316.0138,793.0
316.082,877.0
316.1502,801.0
316.2184,881.0
316.2867,825.0
316.3549,868.0
316.423,818.0
316.4912,948.0
316.5594,836.0
316.6276,884.0
316.6958,790.0
316.764,893.0
316.8322,790.0
316.9003,872.0
316.9685,766.0
317.0367,969.0
317.1049,816.0
317.173,925.0
317.2411,830.0
317.3093,925.0
317.3774,830.0
317.4456,870.0
317.5137,828.0
317.5819,909.0
317.65,800.0
317.7182,915.0
317.7863,855.0
317.8545,918.0
317.9225,832.0
317.9907,886.0
318.0588,791.0
318.1269,957.0
318.195,881.0
318.2631,946.0
318.3312,813.0
318.3994,869.0
318.4675,820.0
318.5355,908.0
318.6036,811.0
318.6717,924.0
318.7398,836.0
318.8079,950.0
318.876,876.0
318.9441,899.0
319.0121,862.0
319.0802,924.0
319.1483,853.0
319.2164,920.0
319.2844,785.0
319.3525,961.0
319.4205,808.0
319.4886,974.0
319.5566,838.0
319.6247,894.0
319.6927,804.0
319.7608,938.0
319.8288,851.0
319.8968,923.0
319.9648,857.0
320.0329,938.0
320.1009,837.0
320.1689,859.0
320.237,859.0
320.305,910.0
320.373,855.0
320.441,952.0
320.509,799.0
320.577,903.0
320.645,869.0
320.713,941.0
320.781,834.0
320.849,911.0
320.917,803.0
320.985,900.0
321.0529,864.0
321.1209,941.0
321.1889,837.0
321.2568,895.0
321.3248,866.0
321.3928,892.0
321.4608,828.0
321.5287,858.0
321.5966,769.0
321.6646,897.0
321.7325,802.0
321.8005,908.0
321.8684,791.0
321.9364,904.0
322.0043,874.0
322.0722,927.0
322.1401,830.0
322.2081,913.0
322.276,842.0
322.344,861.0
322.4119,853.0
322.4797,885.0
322.5477,808.0
322.6156,873.0
322.6835,826.0
322.7514,928.0
322.8193,824.0
322.8871,890.0
322.955,860.0
323.0229,967.0
323.0908,834.0
323.1588,958.0
323.2266,827.0
323.2945,934.0
323.3623,829.0
323.4302,957.0
323.4981,849.0
323.5659,927.0
323.6338,841.0
323.7016,868.0
323.7695,858.0
323.8373,920.0
323.9052,879.0
323.973,920.0
324.0409,818.0
324.1087,939.0
324.1765,844.0
324.2444,959.0
324.3122,806.0
324.38,951.0
324.4479,839.0
324.5157,928.0
324.5834,851.0
324.6512,921.0
324.7191,915.0
324.7869,931.0
324.8547,892.0
324.9225,929.0
324.9903,872.0
325.058,969.0
325.1259,863.0
325.1936,946.0
325.2614,822.0
325.3292,946.0
325.397,860.0
325.4647,917.0
325.5325,841.0
325.6002,899.0
325.668,839.0
325.7358,926.0
325.8036,822.0
325.8713,932.0
325.939,855.0
326.0068,905.0
326.0745,867.0
326.1422,925.0
326.21,820.0
326.2777,971.0
326.3455,822.0
326.4132,949.0
326.4809,848.0
326.5486,902.0
326.6164,841.0
326.6841,893.0
326.7518,844.0
326.8195,898.0
326.8872,809.0
326.9549,964.0
327.0226,856.0
327.0903,936.0
327.158,857.0
327.2256,928.0
327.2933,850.0
327.361,952.0
327.4287,814.0
327.4964,928.0
327.5641,816.0
327.6317,945.0
327.6994,790.0
327.767,983.0
327.8347,832.0
327.9023,974.0
327.97,880.0
328.0376,907.0
328.1053,827.0
328.1729,886.0
328.2406,857.0
328.3082,880.0
328.3759,851.0
328.4435,891.0
328.5111,853.0
328.5787,882.0
328.6463,826.0
328.7139,907.0
328.7816,829.0
328.8492,954.0
328.9168,809.0
328.9843,865.0
329.052,859.0
329.1196,920.0
329.1872,793.0
329.2548,920.0
329.3224,782.0
329.3899,863.0
329.4575,800.0
329.5251,892.0
329.5927,798.0
329.6602,877.0
329.7278,813.0
329.7953,900.0
329.8629,802.0
329.9305,897.0
329.998,786.0
330.0656,846.0
330.1331,818.0
330.2007,857.0
330.2682,832.0
330.3358,831.0
330.4033,793.0
330.4708,899.0
330.5383,826.0
330.6059,882.0
330.6734,807.0
330.7409,852.0
330.8084,793.0
330.876,897.0
330.9435,831.0
331.011,825.0
331.0784,750.0
331.1459,898.0
331.2134,814.0
331.2809,881.0
331.3484,816.0
331.4159,863.0
331.4834,801.0
331.5508,895.0
331.6183,784.0
331.6858,924.0
331.7533,865.0
331.8207,914.0
331.8882,803.0
331.9557,872.0
332.0231,806.0
332.0906,908.0
332.1581,775.0
332.2255,877.0
332.2929,796.0
332.3604,901.0
332.4278,840.0
332.4952,867.0
332.5627,792.0
332.6301,894.0
332.6975,788.0
332.7649,892.0
332.8323,797.0
332.8997,914.0
332.9672,851.0
333.0346,884.0
333.102,792.0
333.1694,874.0
333.2368,841.0
333.3042,869.0
333.3716,804.0
333.439,930.0
333.5063,791.0
333.5737,896.0
333.6411,836.0
333.7085,904.0
333.7758,823.0
333.8432,873.0
333.9106,810.0
333.9779,900.0
334.0453,750.0
334.1126,945.0
334.18,808.0
334.2473,939.0
334.3147,832.0
334.382,857.0
334.4494,820.0
334.5167,910.0
334.584,817.0
334.6514,898.0
334.7187,754.0
334.786,926.0
334.8533,797.0
334.9206,868.0
334.9879,817.0
335.0553,863.0
335.1226,801.0
335.1899,852.0
335.2572,836.0
335.3245,894.0
335.3918,845.0
335.459,896.0
335.5263,824.0
335.5936,852.0
335.6609,875.0
335.7282,938.0
335.7954,786.0
335.8627,942.0
335.93,864.0
335.9973,857.0
336.0645,799.0
336.1318,881.0
336.199,787.0
336.2662,908.0
336.3335,836.0
336.4008,885.0
336.468,764.0
336.5352,937.0
336.6024,790.0
336.6697,894.0
336.7369,824.0
336.8041,856.0
336.8714,758.0
336.9386,891.0
337.0058,773.0
337.073,890.0
337.1402,812.0
337.2074,881.0
337.2746,833.0
337.3418,858.0
337.409,805.0
337.4762,836.0
337.5434,818.0
337.6106,910.0
337.6777,753.0
337.7449,896.0
337.8121,818.0
337.8792,829.0
337.9464,787.0
338.0135,882.0
338.0807,784.0
338.1479,897.0
338.2151,838.0
338.2822,857.0
338.3493,791.0
338.4165,880.0
338.4836,802.0
338.5508,899.0
338.6179,752.0
338.6851,867.0
338.7521,808.0
338.8193,885.0
338.8864,839.0
338.9535,910.0
339.0206,811.0
339.0878,840.0
339.1548,794.0
339.222,889.0
339.289,759.0
339.3561,923.0
339.4233,768.0
339.4904,919.0
339.5574,802.0
339.6245,845.0
339.6916,807.0
339.7587,890.0
339.8257,789.0
339.8929,893.0
339.9599,792.0
340.0269,883.0
340.094,771.0
340.1611,890.0
340.2281,764.0
340.2952,850.0
340.3622,811.0
340.4293,853.0
340.4963,753.0
340.5633,836.0
340.6304,775.0
340.6974,877.0
340.7645,764.0
340.8315,894.0
340.8985,758.0
340.9655,875.0
341.0325,762.0
341.0995,858.0
341.1665,839.0
341.2335,855.0
341.3005,783.0
341.3675,909.0
341.4345,725.0
341.5015,837.0
341.5685,777.0
341.6355,857.0
341.7025,792.0
341.7694,858.0
341.8364,786.0
341.9034,890.0
341.9704,804.0
342.0373,908.0
342.1043,741.0
342.1712,903.0
342.2382,759.0
342.3051,890.0
342.3721,800.0
342.4391,916.0
342.506,791.0
342.5729,859.0
342.6398,783.0
342.7068,838.0
342.7737,766.0
342.8406,873.0
342.9076,805.0
342.9745,857.0
343.0414,815.0
343.1083,891.0
343.1752,794.0
343.2421,840.0
343.309,828.0
343.3759,861.0
343.4428,805.0
343.5097,909.0
343.5766,820.0
343.6434,844.0
343.7104,820.0
343.7772,892.0
343.8441,764.0
343.9109,856.0
343.9778,794.0
344.0447,892.0
344.1116,840.0
344.1784,858.0
344.2453,790.0
344.3121,869.0
344.3789,780.0
344.4458,944.0
344.5127,797.0
344.5795,917.0
344.6463,832.0
344.7131,872.0
344.78,828.0
344.8468,868.0
344.9136,770.0
344.9805,870.0
345.0473,838.0
345.1141,922.0
345.1809,790.0
345.2477,911.0
345.3145,859.0
345.3813,915.0
345.4481,805.0
345.5149,891.0
345.5816,827.0
345.6484,943.0
345.7152,829.0
345.782,926.0
345.8488,785.0
345.9155,873.0
345.9823,835.0
346.049,862.0
346.1158,791.0
346.1826,886.0
346.2493,818.0
346.3161,915.0
346.3828,817.0
346.4496,929.0
346.5163,821.0
346.5831,863.0
346.6498,803.0
346.7165,938.0
346.7832,822.0
346.85,926.0
346.9167,821.0
346.9834,899.0
347.0501,779.0
347.1168,873.0
347.1835,837.0
347.2502,898.0
347.3169,825.0
347.3836,887.0
347.4503,794.0
347.517,860.0
347.5837,801.0
347.6504,922.0
347.717,819.0
347.7837,895.0
347.8504,808.0
347.9171,884.0
347.9837,841.0
348.0504,929.0
348.1171,793.0
348.1837,880.0
348.2504,810.0
348.317,890.0
348.3837,808.0
348.4503,922.0
348.5169,818.0
348.5836,943.0
348.6502,781.0
348.7169,906.0
348.7835,843.0
348.8501,917.0
348.9167,835.0
348.9833,906.0
349.0499,825.0
349.1165,899.0
349.1832,808.0
349.2498,913.0
349.3163,809.0
349.3829,876.0
349.4495,773.0
349.5161,870.0
349.5827,814.0
349.6493,938.0
349.7159,776.0
349.7824,948.0
349.849,815.0
349.9156,907.0
349.9821,847.0
350.0487,928.0
350.1153,832.0
350.1818,875.0
350.2484,835.0
350.3149,927.0
350.3814,802.0
350.448,902.0
350.5146,791.0
350.5811,895.0
350.6476,849.0
350.7141,911.0
350.7807,853.0
350.8472,927.0
350.9137,807.0
350.9802,912.0
351.0467,857.0
351.1132,880.0
351.1797,821.0
351.2462,933.0
351.3127,834.0
351.3792,928.0
351.4457,808.0
351.5122,912.0
351.5787,872.0
351.6451,967.0
351.7116,836.0
351.7781,944.0
351.8446,846.0
351.911,894.0
351.9775,807.0
352.044,922.0
352.1104,896.0
352.1769,947.0
352.2433,853.0
352.3098,933.0
352.3762,855.0
352.4427,946.0
352.5091,817.0
352.5755,900.0
352.642,850.0
352.7084,995.0
352.7748,897.0
352.8412,978.0
352.9077,830.0
352.9741,929.0
353.0405,855.0
353.1068,956.0
353.1732,831.0
353.2396,983.0
353.306,894.0
353.3724,917.0
353.4388,908.0
353.5052,971.0
353.5716,837.0
353.638,947.0
353.7043,908.0
353.7707,974.0
353.8371,863.0
353.9034,1024.0
353.9698,903.0
354.0362,968.0
354.1025,939.0
354.1689,997.0
354.2352,898.0
354.3016,995.0
354.3679,910.0
354.4342,1031.0
354.5005,930.0
354.5669,1025.0
354.6332,905.0
354.6996,995.0
354.7659,945.0
354.8322,969.0
354.8985,904.0
354.9648,978.0
355.0311,919.0
355.0974,1012.0
355.1637,932.0
355.23,976.0
355.2963,911.0
355.3625,979.0
355.4289,858.0
355.4952,1012.0
355.5614,884.0
355.6277,1017.0
355.694,913.0
355.7603,971.0
355.8265,932.0
355.8928,998.0
355.959,870.0
356.0253,984.0
356.0916,893.0
356.1578,998.0
356.224,903.0
356.2903,1007.0
356.3565,908.0
356.4228,984.0
356.489,861.0
356.5552,979.0
356.6214,873.0
356.6876,988.0
356.7539,888.0
356.8201,992.0
356.8863,869.0
356.9525,940.0
357.0187,844.0
357.0849,940.0
357.1511,850.0
357.2173,932.0
357.2835,854.0
357.3497,920.0
357.4158,902.0
357.482,943.0
357.5482,836.0
357.6144,951.0
357.6805,880.0
357.7467,1037.0
357.8128,925.0
357.879,996.0
357.9452,977.0
358.0114,1080.0
358.0775,1030.0
358.1436,1174.0
358.2097,1132.0
358.2759,1254.0
358.342,1226.0
358.4082,1323.0
358.4743,1191.0
358.5404,1238.0
358.6065,1073.0
358.6726,1059.0
358.7387,977.0
358.8049,1065.0
358.871,1049.0
358.9371,1142.0
359.0032,987.0
359.0693,942.0
359.1353,864.0
359.2014,862.0
359.2676,837.0
359.3336,887.0
359.3997,759.0
359.4658,894.0
359.5318,833.0
359.5979,920.0
359.664,803.0
359.7301,879.0
359.7961,843.0
359.8622,892.0
359.9282,774.0
359.9943,899.0
360.0603,769.0
360.1264,927.0
360.1924,812.0
360.2585,867.0
360.3244,833.0
360.3905,860.0
360.4565,797.0
360.5225,892.0
360.5885,845.0
360.6546,878.0
360.7206,808.0
360.7866,892.0
360.8526,806.0
360.9185,852.0
360.9846,785.0
361.0506,856.0
361.1165,762.0
361.1825,881.0
361.2485,776.0
361.3145,888.0
361.3805,782.0
361.4465,859.0
361.5124,790.0
361.5784,854.0
361.6443,784.0
361.7103,885.0
361.7762,793.0
361.8422,919.0
361.9082,805.0
361.9741,838.0
362.04,786.0
362.106,912.0
362.1719,803.0
362.2379,854.0
362.3038,827.0
362.3697,931.0
362.4356,758.0
362.5015,905.0
362.5675,837.0
362.6334,895.0
362.6993,815.0
362.7652,917.0
362.8311,768.0
362.8969,888.0
362.9629,765.0
363.0287,931.0
363.0947,812.0
363.1605,908.0
363.2264,816.0
363.2923,872.0
363.3582,823.0
363.424,892.0
363.4899,786.0
363.5557,878.0
363.6216,794.0
363.6874,883.0
363.7533,792.0
363.8191,855.0
363.885,807.0
363.9508,857.0
364.0167,753.0
364.0825,878.0
364.1483,825.0
364.2142,935.0
364.28,804.0
364.3458,916.0
364.4116,787.0
364.4774,896.0
364.5432,795.0
364.609,858.0
364.6748,792.0
364.7406,915.0
364.8065,768.0
364.8722,895.0
364.938,785.0
365.0038,886.0
365.0696,809.0
365.1354,886.0
365.2011,789.0
365.2669,894.0
365.3326,783.0
365.3984,858.0
365.4642,785.0
365.5299,918.0
365.5957,775.0
365.6614,893.0
365.7272,833.0
365.7929,922.0
365.8587,783.0
365.9244,891.0
365.9902,804.0
366.0559,882.0
366.1216,827.0
366.1873,883.0
366.253,845.0
366.3188,888.0
366.3845,797.0
366.4502,893.0
366.5159,809.0
366.5816,892.0
366.6473,804.0
366.713,832.0
366.7787,774.0
366.8444,888.0
366.91,776.0
366.9757,890.0
367.0414,778.0
367.1071,915.0
367.1727,764.0
367.2384,858.0
367.3041,801.0
367.3697,857.0
367.4354,777.0
367.501,862.0
367.5667,735.0
367.6323,860.0
367.698,812.0
367.7636,864.0
367.8292,805.0
367.8948,883.0
367.9605,766.0
368.0261,842.0
368.0918,738.0
368.1573,878.0
368.223,761.0
368.2885,879.0
368.3542,763.0
368.4198,851.0
368.4854,793.0
368.551,824.0
368.6165,765.0
368.6821,851.0
368.7477,789.0
368.8133,866.0
368.8789,776.0
368.9445,836.0
369.01,777.0
369.0756,866.0
369.1411,781.0
369.2067,860.0
369.2723,754.0
369.3379,844.0
369.4034,801.0
369.4689,840.0
369.5345,746.0
369.6,851.0
369.6656,756.0
369.7311,834.0
369.7966,762.0
369.8622,813.0
369.9277,777.0
369.9932,816.0
370.0587,813.0
370.1242,833.0
370.1897,778.0
370.2552,796.0
370.3207,736.0
370.3862,862.0
370.4517,764.0
370.5172,813.0
370.5827,790.0
370.6482,886.0
370.7136,747.0
370.7791,826.0
370.8446,754.0
370.9101,841.0
370.9756,741.0
371.041,865.0
371.1064,771.0
371.1719,815.0
371.2373,766.0
371.3028,842.0
371.3683,772.0
371.4337,861.0
371.4991,759.0
371.5646,871.0
371.63,781.0
371.6954,814.0
371.7608,762.0
371.8263,859.0
371.8917,783.0
371.9571,882.0
372.0225,727.0
372.0879,849.0
372.1533,809.0
372.2187,895.0
372.2841,771.0
372.3495,885.0
372.4149,804.0
372.4803,916.0
372.5457,773.0
372.611,869.0
372.6764,756.0
372.7418,902.0
372.8071,824.0
372.8725,912.0
372.9379,866.0
373.0032,848.0
373.0686,787.0
373.1339,910.0
373.1992,802.0
373.2646,869.0
373.3299,814.0
373.3953,879.0
373.4606,835.0
373.5259,901.0
373.5912,792.0
373.6566,875.0
373.7219,805.0
373.7872,895.0
373.8525,836.0
373.9178,884.0
373.9831,791.0
374.0484,874.0
374.1137,835.0
374.179,884.0
374.2443,790.0
374.3096,891.0
374.3749,803.0
374.4401,907.0
374.5054,812.0
374.5706,851.0
374.636,817.0
374.7012,869.0
374.7665,855.0
374.8318,898.0
374.897,841.0
374.9622,860.0
375.0275,788.0
375.0927,883.0
375.158,859.0
375.2232,908.0
375.2885,872.0
375.3537,898.0
375.4189,799.0
375.4841,901.0
375.5493,848.0
375.6145,912.0
375.6797,807.0
375.745,927.0
375.8101,772.0
375.8754,926.0
375.9406,824.0
376.0057,915.0
376.071,841.0
376.1361,974.0
376.2013,807.0
376.2665,900.0
376.3317,827.0
376.3969,912.0
376.462,833.0
376.5272,965.0
376.5923,864.0
376.6575,923.0
376.7226,844.0
376.7878,930.0
376.8529,824.0
376.9181,938.0
376.9832,833.0
377.0483,892.0
377.1135,825.0
377.1786,972.0
377.2437,839.0
377.3089,938.0
377.374,892.0
377.4391,916.0
377.5042,856.0
377.5693,941.0
377.6344,887.0
377.6995,934.0
377.7646,870.0
377.8297,964.0
377.8948,934.0
377.9599,953.0
378.025,895.0
378.09,953.0
378.1551,870.0
378.2202,957.0
378.2852,904.0
378.3503,969.0
378.4154,872.0
378.4804,1063.0
378.5455,932.0
378.6105,1006.0
378.6755,924.0
378.7406,980.0
378.8057,947.0
378.8707,984.0
378.9357,881.0
379.0008,1022.0
379.0658,908.0
379.1308,1049.0
379.1958,960.0
379.2609,1016.0
379.3259,931.0
379.3908,1044.0
379.4558,980.0
379.5208,1016.0
379.5858,964.0
379.6509,1065.0
379.7159,1030.0
379.7808,1028.0
379.8458,966.0
379.9108,1076.0
379.9758,1022.0
380.0407,1113.0
380.1057,1000.0
380.1707,1123.0
380.2356,1018.0
380.3006,1127.0
380.3655,1058.0
380.4305,1098.0
380.4955,1011.0
380.5604,1123.0
380.6253,1029.0
380.6902,1163.0
380.7552,1057.0
380.8201,1175.0
380.885,1099.0
380.95,1132.0
381.0149,1147.0
381.0798,1162.0
381.1447,1117.0
381.2096,1255.0
381.2745,1156.0
381.3394,1201.0
381.4043,1129.0
381.4692,1196.0
381.5341,1191.0
381.5989,1190.0
381.6638,1096.0
381.7287,1264.0
381.7936,1150.0
381.8585,1291.0
381.9233,1183.0
381.9882,1306.0
382.053,1228.0
382.1179,1291.0
382.1828,1245.0
382.2476,1345.0
382.3124,1195.0
382.3773,1338.0
382.4421,1267.0
382.507,1342.0
382.5718,1298.0
382.6366,1315.0
382.7014,1209.0
382.7663,1355.0
382.8311,1229.0
382.8959,1359.0
382.9607,1237.0
383.0255,1320.0
383.0903,1331.0
383.1551,1436.0
383.2199,1311.0
383.2847,1340.0
383.3495,1304.0
383.4143,1411.0
383.479,1312.0
383.5438,1391.0
383.6086,1256.0
383.6734,1398.0
383.7381,1315.0
383.8029,1420.0
383.8676,1329.0
383.9324,1378.0
383.9972,1367.0
384.0619,1431.0
384.1266,1304.0
384.1914,1454.0
384.2562,1349.0
384.3209,1433.0
384.3856,1373.0
384.4503,1542.0
384.515,1483.0
384.5797,1594.0
384.6445,1504.0
384.7092,1656.0
384.7739,1607.0
384.8386,1807.0
384.9033,1751.0
384.968,1856.0
385.0327,1788.0
385.0974,1809.0
385.162,1655.0
385.2267,1663.0
385.2914,1696.0
385.3561,1882.0
385.4208,1760.0
385.4854,1721.0
385.5501,1565.0
385.6147,1622.0
385.6794,1649.0
385.7441,1690.0
385.8087,1668.0
385.8734,1824.0
385.938,1757.0
386.0027,2024.0
386.0673,2085.0
386.1319,1900.0
386.1966,1594.0
386.2612,1568.0
386.3258,1428.0
386.3904,1484.0
386.455,1444.0
386.5196,1593.0
386.5843,1596.0
386.6489,1720.0
386.7135,1826.0
386.778,1970.0
386.8426,2124.0
386.9072,2234.0
386.9718,2340.0
387.0364,2441.0
387.101,2039.0
387.1655,1676.0
387.2301,1337.0
387.2946,1354.0
387.3593,1220.0
387.4238,1323.0
387.4884,1254.0
387.5529,1438.0
387.6175,1465.0
387.682,1638.0
387.7466,1667.0
387.8111,1881.0
387.8756,1951.0
387.9402,2178.0
388.0047,2363.0
388.0692,2579.0
388.1337,2684.0
388.1982,2969.0
388.2628,2611.0
388.3272,1835.0
388.3918,1265.0
388.4563,1078.0
388.5208,894.0
388.5852,971.0
388.6497,831.0
388.7142,862.0
388.7787,843.0
388.8432,933.0
388.9077,819.0
388.9721,869.0
389.0366,769.0
389.1011,887.0
389.1655,818.0
389.23,855.0
389.2944,838.0
389.3589,874.0
389.4233,781.0
389.4878,899.0
389.5522,805.0
389.6167,925.0
389.6811,819.0
389.7455,892.0
389.8099,819.0
389.8744,882.0
389.9388,806.0
390.0032,901.0
390.0676,854.0
390.132,895.0
390.1964,799.0
390.2608,893.0
390.3252,782.0
390.3896,865.0
390.454,843.0
390.5184,895.0
390.5827,796.0
390.6471,925.0
390.7115,818.0
390.7759,911.0
390.8402,841.0
390.9046,922.0
390.9689,840.0
391.0333,919.0
391.0977,839.0
391.162,926.0
391.2264,809.0
391.2907,898.0
391.355,869.0
391.4193,881.0
391.4837,819.0
391.548,898.0
391.6123,817.0
391.6767,924.0
391.741,798.0
391.8053,937.0
391.8696,801.0
391.9339,930.0
391.9982,850.0
392.0625,973.0
392.1268,870.0
392.1911,908.0
392.2553,811.0
392.3196,927.0
392.3839,844.0
392.4482,893.0
392.5125,802.0
392.5767,913.0
392.641,869.0
392.7053,894.0
392.7695,820.0
392.8338,979.0
392.898,898.0
392.9622,936.0
393.0265,847.0
393.0908,896.0
393.155,919.0
393.2192,987.0
393.2834,930.0
393.3477,999.0
393.4118,896.0
393.476,939.0
393.5403,795.0
393.6045,945.0
393.6687,825.0
393.7329,910.0
393.7971,867.0
393.8613,925.0
393.9255,790.0
393.9897,930.0
394.0539,803.0
394.118,879.0
394.1822,758.0
394.2464,881.0
394.3105,819.0
394.3747,879.0
394.4389,871.0
394.503,877.0
394.5672,780.0
394.6313,919.0
394.6954,849.0
394.7596,903.0
394.8238,792.0
394.8879,894.0
394.952,779.0
395.0161,866.0
395.0803,793.0
395.1444,962.0
395.2085,801.0
395.2726,879.0
395.3367,831.0
395.4008,910.0
395.4649,781.0
395.529,862.0
395.5931,827.0
395.6572,917.0
395.7213,807.0
395.7854,878.0
395.8495,817.0
395.9135,877.0
395.9776,804.0
396.0417,883.0
396.1057,803.0
396.1698,860.0
396.2339,788.0
396.2979,860.0
396.362,807.0
396.426,913.0
396.4901,780.0
396.5541,878.0
396.6181,812.0
396.6821,881.0
396.7462,834.0
396.8102,920.0
396.8743,837.0
396.9383,890.0
397.0023,810.0
397.0662,811.0
397.1302,810.0
397.1943,858.0
397.2583,803.0
397.3223,841.0
397.3862,845.0
397.4502,861.0
397.5142,801.0
397.5782,863.0
397.6422,808.0
397.7061,840.0
397.7701,820.0
397.8341,878.0
397.898,763.0
397.962,906.0
398.0259,798.0
398.0899,854.0
398.1538,803.0
398.2178,883.0
398.2817,815.0
398.3456,871.0
398.4096,753.0
398.4735,849.0
398.5374,767.0
398.6013,863.0
398.6653,799.0
398.7292,844.0
398.7931,836.0
398.857,865.0
398.9209,759.0
398.9848,873.0
399.0487,846.0
399.1125,902.0
399.1765,792.0
399.2404,885.0
399.3042,824.0
399.3681,901.0
399.432,763.0
399.4958,870.0
399.5597,802.0
399.6236,930.0
399.6875,846.0
399.7513,875.0
399.8152,841.0
399.879,905.0
399.9428,839.0
400.0067,897.0
400.0705,797.0
400.1343,920.0
400.1982,768.0
400.262,893.0
400.3258,772.0
400.3896,858.0
400.4534,788.0
400.5172,862.0
400.581,762.0
400.6448,924.0
400.7086,825.0
400.7724,874.0
400.8362,833.0
400.9,877.0
400.9638,772.0
401.0276,906.0
401.0913,815.0
401.1551,914.0
401.2189,824.0
401.2826,912.0
401.3464,815.0
401.4102,875.0
401.4739,791.0
401.5376,876.0
401.6014,838.0
401.6651,891.0
401.7289,795.0
401.7926,917.0
401.8564,806.0
401.92,909.0
401.9838,779.0
402.0475,903.0
402.1112,836.0
402.175,871.0
402.2386,798.0
402.3023,903.0
402.366,829.0
402.4297,944.0
402.4934,849.0
402.5571,897.0
402.6208,857.0
402.6845,896.0
402.7482,762.0
402.8118,912.0
402.8755,796.0
402.9392,916.0
403.0028,826.0
403.0665,919.0
403.1301,844.0
403.1938,884.0
403.2574,878.0
403.3211,925.0
403.3847,841.0
403.4484,882.0
403.512,826.0
403.5756,879.0
403.6393,842.0
403.7029,904.0
403.7665,865.0
403.8301,941.0
403.8937,777.0
403.9573,907.0
404.0209,826.0
404.0845,918.0
404.1481,804.0
404.2117,922.0
404.2753,835.0
404.3389,937.0
404.4024,817.0
404.466,880.0
404.5296,839.0
404.5932,893.0
404.6567,906.0
404.7203,946.0
404.7838,802.0
404.8474,887.0
404.9109,808.0
404.9745,905.0
405.0381,811.0
405.1016,961.0
405.1651,805.0
405.2286,956.0
405.2922,834.0
405.3557,917.0
405.4193,824.0
405.4828,872.0
405.5462,828.0
405.6097,899.0
405.6733,870.0
405.7368,914.0
405.8003,816.0
405.8638,880.0
405.9272,833.0
405.9907,887.0
406.0542,837.0
406.1177,902.0
406.1812,820.0
406.2446,910.0
406.3081,805.0
406.3716,924.0
406.435,835.0
406.4985,874.0
406.562,835.0
406.6254,916.0
406.6888,884.0
406.7523,907.0
406.8157,835.0
406.8791,901.0
406.9426,858.0
407.006,952.0
407.0694,913.0
407.1328,965.0
407.1962,868.0
407.2597,933.0
407.3231,884.0
407.3865,996.0
407.4499,838.0
407.5133,936.0
407.5767,892.0
407.64,916.0
407.7034,812.0
407.7668,939.0
407.8302,846.0
407.8936,944.0
407.9569,884.0
408.0203,940.0
408.0836,825.0
408.147,955.0
408.2104,900.0
408.2737,946.0
408.3371,898.0
408.4004,996.0
408.4637,883.0
408.5271,972.0
408.5905,923.0
408.6537,939.0
408.7171,858.0
408.7804,967.0
408.8437,872.0
408.907,971.0
408.9703,863.0
409.0336,969.0
409.0969,887.0
409.1602,988.0
409.2235,881.0
409.2868,971.0
409.3501,876.0
409.4134,957.0
409.4767,898.0
409.5399,992.0
409.6032,935.0
409.6665,932.0
409.7297,886.0
409.793,991.0
409.8563,878.0
409.9195,941.0
409.9827,892.0
410.046,971.0
410.1092,913.0
410.1725,991.0
410.2357,868.0
410.299,934.0
410.3622,879.0
410.4254,974.0
410.4886,875.0
410.5518,916.0
410.615,847.0
410.6782,1003.0
410.7414,863.0
410.8046,995.0
410.8678,822.0
410.931,935.0
410.9942,897.0
411.0574,945.0
411.1205,881.0
411.1837,963.0
411.2469,901.0
411.3101,892.0
411.3733,868.0
411.4364,962.0
411.4995,871.0
411.5627,904.0
411.6259,844.0
411.689,976.0
411.7521,883.0
411.8153,917.0
411.8784,906.0
411.9415,892.0
412.0046,842.0
412.0678,951.0
412.1309,856.0
412.194,915.0
412.2571,858.0
412.3203,935.0
412.3833,837.0
412.4464,988.0
412.5096,873.0
412.5727,893.0
412.6357,835.0
412.6988,978.0
412.7619,900.0
412.825,956.0
412.8881,836.0
412.9511,915.0
413.0142,849.0
413.0772,936.0
413.1403,824.0
413.2033,906.0
413.2664,861.0
413.3294,948.0
413.3925,860.0
413.4555,942.0
413.5186,875.0
413.5816,926.0
413.6446,878.0
413.7076,916.0
413.7707,809.0
413.8337,965.0
413.8967,837.0
413.9597,967.0
414.0227,920.0
414.0857,960.0
414.1487,850.0
414.2117,932.0
414.2747,873.0
414.3376,960.0
414.4006,890.0
414.4636,943.0
414.5266,932.0
414.5896,932.0
414.6525,918.0
414.7155,1011.0
414.7784,937.0
414.8414,960.0
414.9044,936.0
414.9673,1057.0
415.0303,975.0
415.0932,1072.0
415.1561,964.0
415.2191,944.0
415.282,950.0
415.3449,1013.0
415.4079,878.0
415.4708,978.0
415.5336,902.0
415.5966,1051.0
415.6595,946.0
415.7224,1053.0
415.7853,929.0
415.8482,953.0
415.9111,899.0
415.9739,981.0
416.0368,950.0
416.0997,972.0
416.1626,906.0
416.2255,969.0
416.2883,952.0
416.3512,991.0
416.414,900.0
416.4769,1031.0
416.5397,930.0
416.6026,1052.0
416.6654,977.0
416.7283,1058.0
416.7911,905.0
416.8539,983.0
416.9167,940.0
416.9796,954.0
417.0424,895.0
417.1052,996.0
417.168,917.0
417.2308,976.0
417.2936,917.0
417.3564,1027.0
417.4193,912.0
417.4821,1012.0
417.5448,876.0
417.6076,1008.0
417.6704,903.0
417.7332,990.0
417.796,966.0
417.8587,1068.0
417.9215,962.0
417.9842,1055.0
418.047,945.0
418.1098,995.0
418.1725,914.0
418.2353,941.0
418.298,821.0
418.3607,956.0
418.4235,827.0
418.4862,951.0
418.549,892.0
418.6117,952.0
418.6744,854.0
418.7371,997.0
418.7998,831.0
418.8625,930.0
418.9252,864.0
418.9879,943.0
419.0507,856.0
419.1133,921.0
419.176,865.0
419.2387,1012.0
419.3014,923.0
419.3641,1034.0
419.4268,970.0
419.4894,1062.0
419.5521,1018.0
419.6147,1079.0
419.6774,981.0
419.7401,917.0
419.8027,825.0
419.8654,905.0
419.928,835.0
419.9906,932.0
420.0533,826.0
420.1159,898.0
420.1785,856.0
420.2411,871.0
420.3038,854.0
420.3664,891.0
420.429,805.0
420.4916,910.0
420.5542,817.0
420.6168,915.0
420.6794,825.0
420.742,900.0
420.8046,829.0
420.8672,902.0
420.9297,847.0
420.9923,978.0
421.0549,844.0
421.1175,940.0
421.18,881.0
421.2426,975.0
421.3052,881.0
421.3677,982.0
421.4303,960.0
421.4928,1038.0
421.5554,843.0
421.6179,898.0
421.6804,811.0
421.743,824.0
421.8055,797.0
421.868,919.0
421.9305,757.0
421.993,873.0
422.0556,784.0
422.1181,822.0
422.1806,717.0
422.2431,868.0
422.3055,768.0
422.368,880.0
422.4305,785.0
422.493,844.0
422.5555,748.0
422.618,860.0
422.6805,806.0
422.7429,872.0
422.8054,824.0
422.8679,840.0
422.9303,766.0
422.9928,865.0
423.0552,758.0
423.1177,884.0
423.1801,772.0
423.2425,879.0
423.305,778.0
423.3674,835.0
423.4298,764.0
423.4922,908.0
423.5547,743.0
423.617,855.0
423.6795,801.0
423.7419,902.0
423.8043,798.0
423.8667,875.0
423.9291,827.0
423.9915,862.0
424.0538,805.0
424.1163,843.0
424.1786,835.0
424.241,837.0
424.3034,793.0
424.3658,882.0
424.4281,817.0
424.4905,889.0
424.5529,790.0
424.6152,886.0
424.6775,805.0
424.7399,880.0
424.8022,868.0
424.8646,921.0
424.9269,839.0
424.9892,892.0
425.0515,874.0
425.1139,926.0
425.1762,814.0
425.2385,913.0
425.3008,850.0
425.3631,907.0
425.4254,797.0
425.4877,927.0
425.55,834.0
425.6123,943.0
425.6746,893.0
425.7369,938.0
425.7992,895.0
425.8614,923.0
425.9237,867.0
425.9859,952.0
426.0482,899.0
426.1105,953.0
426.1727,813.0
426.235,883.0
426.2972,864.0
426.3595,943.0
426.4217,856.0
426.4839,930.0
426.5462,889.0
426.6084,916.0
426.6706,871.0
426.7328,974.0
426.795,907.0
426.8573,978.0
426.9195,838.0
426.9817,929.0
427.0439,865.0
427.1061,931.0
427.1683,875.0
427.2305,921.0
427.2927,838.0
427.3549,896.0
427.417,851.0
427.4792,909.0
427.5413,834.0
427.6035,923.0
427.6657,802.0
427.7278,941.0
427.79,872.0
427.8521,925.0
427.9142,849.0
427.9764,935.0
428.0386,806.0
428.1007,860.0
428.1628,888.0
428.2249,922.0
428.287,867.0
428.3492,929.0
428.4113,780.0
428.4734,902.0
428.5355,801.0
428.5976,943.0
428.6597,806.0
428.7218,900.0
428.7839,817.0
428.846,892.0
428.9081,829.0
428.9702,891.0
429.0322,808.0
429.0943,928.0
429.1563,796.0
429.2184,896.0
429.2805,835.0
429.3425,904.0
429.4046,832.0
429.4666,906.0
429.5287,828.0
429.5908,919.0
429.6528,788.0
429.7148,922.0
429.7768,781.0
429.8388,850.0
429.9008,751.0
429.9629,888.0
430.0249,775.0
430.0869,918.0
430.1489,805.0
430.2109,853.0
430.2729,782.0
430.3349,881.0
430.3969,795.0
430.4589,878.0
430.5208,796.0
430.5828,835.0
430.6448,752.0
430.7068,887.0
430.7688,799.0
430.8307,854.0
430.8926,811.0
430.9546,864.0
431.0165,769.0
431.0785,845.0
431.1404,769.0
431.2024,861.0
431.2643,742.0
431.3262,870.0
431.3881,758.0
431.4501,850.0
431.512,766.0
431.5739,881.0
431.6358,755.0
431.6977,847.0
431.7596,757.0
431.8215,819.0
431.8834,738.0
431.9453,863.0
432.0072,817.0
432.0691,836.0
432.131,735.0
432.1928,841.0
432.2547,699.0
432.3165,824.0
432.3784,736.0
432.4403,789.0
432.5021,770.0
432.564,847.0
432.6258,756.0
432.6876,848.0
432.7495,768.0
432.8113,847.0
432.8732,707.0
432.935,812.0
432.9968,734.0
433.0586,814.0
433.1204,755.0
433.1823,823.0
433.2441,778.0
433.3059,853.0
433.3677,793.0
433.4295,801.0
433.4912,743.0
433.5531,815.0
433.6148,744.0
433.6766,840.0
433.7384,774.0
433.8001,813.0
433.8619,757.0
433.9237,880.0
433.9854,734.0
434.0472,821.0
434.1089,760.0
434.1707,844.0
434.2324,808.0
434.2942,895.0
434.3559,754.0
434.4177,854.0
434.4794,780.0
434.5411,870.0
434.6028,807.0
434.6645,853.0
434.7263,809.0
434.788,884.0
434.8497,761.0
434.9113,885.0
434.973,782.0
435.0347,848.0
435.0965,758.0
435.1581,870.0
435.2198,806.0
435.2815,861.0
435.3431,780.0
435.4048,871.0
435.4665,767.0
435.5282,861.0
435.5898,794.0
435.6515,860.0
435.7131,797.0
435.7747,877.0
435.8363,768.0
435.898,891.0
435.9597,786.0
436.0213,866.0
436.0829,856.0
436.1445,928.0
436.2061,811.0
436.2678,931.0
436.3294,837.0
436.391,938.0
436.4525,880.0
436.5141,879.0
436.5757,825.0
436.6373,848.0
436.6989,773.0
436.7605,886.0
436.8221,813.0
436.8836,882.0
436.9452,858.0
437.0067,884.0
437.0684,831.0
437.1299,864.0
437.1914,811.0
437.253,865.0
437.3145,812.0
437.3761,873.0
437.4376,736.0
437.4992,845.0
437.5607,750.0
437.6222,840.0
437.6837,774.0
437.7452,834.0
437.8067,764.0
437.8683,869.0
437.9298,824.0
437.9913,847.0
438.0528,781.0
438.1143,820.0
438.1757,766.0
438.2372,852.0
438.2987,799.0
438.3602,850.0
438.4217,798.0
438.4831,841.0
438.5446,752.0
438.6061,841.0
438.6675,775.0
438.729,793.0
438.7904,730.0
438.8519,830.0
438.9133,768.0
438.9747,811.0
439.0362,752.0
439.0976,847.0
439.159,763.0
439.2204,864.0
439.2819,741.0
439.3433,868.0
439.4047,775.0
439.4661,839.0
439.5275,786.0
439.5889,838.0
439.6503,716.0
439.7116,819.0
439.7731,789.0
439.8345,885.0
439.8958,741.0
439.9572,820.0
440.0186,769.0
440.0799,858.0
440.1413,788.0
440.2027,858.0
440.264,746.0
440.3253,886.0
440.3867,757.0
440.448,888.0
440.5093,775.0
440.5707,895.0
440.632,765.0
440.6934,876.0
440.7546,788.0
440.816,865.0
440.8773,705.0
440.9386,866.0
440.9999,780.0
441.0612,846.0
441.1225,796.0
441.1838,822.0
441.2451,817.0
441.3063,854.0
441.3677,823.0
441.429,856.0
441.4902,767.0
441.5515,856.0
441.6127,783.0
441.674,785.0
441.7353,780.0
441.7965,849.0
441.8578,730.0
441.919,833.0
441.9802,790.0
442.0414,844.0
442.1027,776.0
442.164,847.0
442.2252,818.0
442.2864,865.0
442.3476,794.0
442.4088,852.0
442.47,773.0
442.5312,869.0
442.5924,796.0
442.6536,853.0
442.7148,766.0
442.776,818.0
442.8372,754.0
442.8984,836.0
442.9596,772.0
443.0207,873.0
443.0819,751.0
443.143,873.0
443.2042,780.0
443.2653,858.0
443.3265,732.0
443.3877,841.0
443.4488,806.0
443.5099,810.0
443.5711,801.0
443.6322,826.0
443.6934,738.0
443.7545,885.0
443.8156,779.0
443.8767,832.0
443.9378,803.0
443.9989,851.0
444.0601,804.0
444.1212,853.0
444.1822,756.0
444.2433,877.0
444.3044,849.0
444.3654,876.0
444.4265,796.0
444.4877,818.0
444.5487,758.0
444.6098,882.0
444.6708,790.0
444.7319,870.0
444.7929,783.0
444.854,861.0
444.915,795.0
444.9761,871.0
445.0371,767.0
445.0981,843.0
445.1592,730.0
445.2203,861.0
445.2812,773.0
445.3423,863.0
445.4033,783.0
445.4643,881.0
445.5253,804.0
445.5862,894.0
445.6473,779.0
445.7083,851.0
445.7693,802.0
445.8303,848.0
445.8912,797.0
445.9522,849.0
446.0132,827.0
446.0742,815.0
446.1352,782.0
446.1961,856.0
446.257,754.0
446.318,867.0
446.379,777.0
446.4399,839.0
446.5009,742.0
446.5618,877.0
446.6227,745.0
446.6836,818.0
446.7446,773.0
446.8055,831.0
446.8664,796.0
446.9273,850.0
446.9883,793.0
447.0491,832.0
447.11,779.0
447.171,896.0
447.2319,729.0
447.2927,876.0
447.3536,756.0
447.4145,825.0
447.4753,796.0
447.5363,800.0
447.5971,742.0
447.658,854.0
447.7188,766.0
447.7797,850.0
447.8405,746.0
447.9014,835.0
447.9623,733.0
448.0231,819.0
448.0839,727.0
448.1447,793.0
448.2056,713.0
448.2664,812.0
448.3272,785.0
448.3881,811.0
448.4489,734.0
448.5096,854.0
448.5705,738.0
448.6312,776.0
448.6921,751.0
448.7529,871.0
448.8137,739.0
448.8744,803.0
448.9352,716.0
448.9959,849.0
449.0567,773.0
449.1175,811.0
449.1783,719.0
449.239,810.0
449.2998,736.0
449.3605,806.0
449.4213,699.0
449.4821,807.0
449.5428,765.0
449.6035,852.0
449.6642,715.0
449.725,801.0
449.7857,733.0
449.8464,832.0
449.9071,686.0
449.9679,813.0
450.0285,714.0
450.0892,830.0
450.1499,692.0
450.2106,747.0
450.2714,744.0
450.332,797.0
450.3927,709.0
450.4534,812.0
450.514,713.0
450.5747,788.0
450.6354,744.0
450.696,778.0
450.7567,710.0
450.8174,760.0
450.878,732.0
450.9386,816.0
450.9993,703.0
451.0599,807.0
451.1206,702.0
451.1812,764.0
451.2418,740.0
451.3024,755.0
451.363,705.0
451.4236,815.0
451.4843,658.0
451.5449,778.0
451.6054,717.0
451.666,790.0
451.7267,697.0
451.7873,771.0
451.8478,727.0
451.9084,794.0
451.969,687.0
452.0295,780.0
452.0901,749.0
452.1507,775.0
452.2113,689.0
452.2718,749.0
452.3324,724.0
452.3929,744.0
452.4534,709.0
452.5139,812.0
452.5745,696.0
452.635,802.0
452.6956,742.0
452.7561,808.0
452.8166,766.0
452.8771,852.0
452.9377,669.0
452.9981,795.0
453.0586,696.0
453.1191,849.0
453.1796,710.0
453.2401,828.0
453.3006,739.0
453.3611,764.0
453.4216,716.0
453.4821,799.0
453.5425,758.0
453.6029,795.0
453.6634,756.0
453.7239,806.0
453.7844,783.0
453.8448,787.0
453.9052,743.0
453.9656,808.0
454.0261,737.0
454.0866,863.0
454.147,691.0
454.2074,837.0
454.2678,690.0
454.3282,818.0
454.3886,775.0
454.449,815.0
454.5095,730.0
454.5699,819.0
454.6302,725.0
454.6906,813.0
454.751,747.0
454.8114,851.0
454.8718,729.0
454.9322,844.0
454.9925,716.0
455.0529,779.0
455.1133,771.0
455.1736,840.0
455.234,738.0
455.2943,808.0
455.3547,753.0
455.415,819.0
455.4753,764.0
455.5357,799.0
455.5959,722.0
455.6563,830.0
455.7167,721.0
455.777,862.0
455.8373,755.0
455.8976,767.0
455.9579,801.0
456.0182,820.0
456.0785,715.0
456.1388,845.0
456.1991,747.0
456.2593,848.0
456.3196,728.0
456.3799,793.0
456.4402,788.0
456.5005,843.0
456.5607,766.0
456.621,808.0
456.6812,718.0
456.7414,814.0
456.8018,731.0
456.862,821.0
456.9222,702.0
456.9825,789.0
457.0426,737.0
457.1028,791.0
457.1631,734.0
457.2234,825.0
457.2835,748.0
457.3438,848.0
457.404,759.0
457.4641,811.0
457.5244,740.0
457.5846,832.0
457.6447,730.0
457.7049,853.0
457.7651,799.0
457.8253,848.0
457.8854,724.0
457.9456,779.0
458.0058,742.0
458.0659,803.0
458.1261,752.0
458.1862,808.0
458.2464,703.0
458.3066,841.0
458.3667,743.0
458.4268,790.0
458.4869,760.0
458.5471,703.0
458.6072,600.0
458.6674,697.0
458.7274,617.0
458.7876,696.0
458.8477,643.0
458.9077,688.0
458.9679,618.0
459.0279,702.0
459.0881,640.0
459.1481,701.0
459.2082,630.0
459.2683,715.0
459.3283,605.0
459.3884,716.0
459.4485,612.0
459.5086,657.0
459.5686,607.0
459.6287,706.0
459.6887,616.0
459.7487,738.0
459.8088,666.0
459.8688,687.0
459.9289,629.0
459.9889,726.0
460.0489,653.0
460.1089,695.0
460.1689,661.0
460.229,690.0
460.289,605.0
