Laser settings:
	Diode frequency:	5 Hz
	Pulses fired:		105
	Q-Switch blanking:	5
	Q-Switch delay:		201 μs
	Q-Switch presync:	1 μs
Spectrometer settings:
	Integration time:	0.0090 ms
	Integration delay:	0.000 ns
	Averaging:		1
	Trigger mode:		External
	Dynamic Dark Correction:		Disabled


wavelength,intensity
184.9409,628.0
185.0142,618.0
185.0875,653.0
185.1608,634.0
185.2341,680.0
185.3074,596.0
185.3807,721.0
185.454,658.0
185.5273,673.0
185.6006,636.0
185.6739,652.0
185.7472,582.0
185.8205,669.0
185.8938,600.0
185.9671,712.0
186.0403,612.0
186.1136,671.0
186.1869,614.0
186.2601,714.0
186.3334,582.0
186.4067,674.0
186.4799,571.0
186.5532,677.0
186.6265,621.0
186.6997,695.0
186.773,621.0
186.8462,709.0
186.9195,598.0
186.9928,688.0
187.066,609.0
187.1392,698.0
187.2125,606.0
187.2857,701.0
187.3589,620.0
187.4322,706.0
187.5054,627.0
187.5786,685.0
187.6519,626.0
187.7251,720.0
187.7983,597.0
187.8715,721.0
187.9447,618.0
188.018,679.0
188.0912,622.0
188.1644,708.0
188.2376,624.0
188.3108,687.0
188.384,639.0
188.4572,679.0
188.5304,662.0
188.6036,726.0
188.6768,659.0
188.75,715.0
188.8232,609.0
188.8963,699.0
188.9695,661.0
189.0427,715.0
189.1159,653.0
189.1891,734.0
189.2623,643.0
189.3354,696.0
189.4086,691.0
189.4818,736.0
189.5549,641.0
189.6281,733.0
189.7012,664.0
189.7744,717.0
189.8476,668.0
189.9207,698.0
189.9939,684.0
190.067,696.0
190.1402,690.0
190.2133,706.0
190.2864,647.0
190.3596,778.0
190.4327,688.0
190.5059,727.0
190.579,657.0
190.6521,725.0
190.7253,641.0
190.7984,712.0
190.8715,651.0
190.9446,754.0
191.0177,626.0
191.0908,720.0
191.164,670.0
191.2371,765.0
191.3102,687.0
191.3833,707.0
191.4564,654.0
191.5295,761.0
191.6026,618.0
191.6757,783.0
191.7488,659.0
191.8219,725.0
191.895,648.0
191.968,735.0
192.0411,677.0
192.1142,695.0
192.1873,660.0
192.2604,738.0
192.3334,657.0
192.4065,742.0
192.4796,697.0
192.5527,800.0
192.6257,681.0
192.6988,760.0
192.7718,691.0
192.8449,772.0
192.918,740.0
192.991,898.0
193.064,868.0
193.1371,997.0
193.2101,878.0
193.2832,858.0
193.3562,809.0
193.4292,840.0
193.5023,732.0
193.5753,803.0
193.6484,707.0
193.7214,756.0
193.7944,692.0
193.8674,780.0
193.9405,657.0
194.0135,781.0
194.0865,672.0
194.1595,802.0
194.2325,704.0
194.3055,750.0
194.3785,664.0
194.4515,802.0
194.5246,703.0
194.5975,774.0
194.6705,679.0
194.7435,726.0
194.8165,695.0
194.8895,761.0
194.9625,687.0
195.0355,777.0
195.1085,713.0
195.1815,745.0
195.2544,664.0
195.3274,735.0
195.4004,696.0
195.4734,760.0
195.5463,638.0
195.6193,798.0
195.6923,747.0
195.7652,760.0
195.8382,686.0
195.9111,745.0
195.9841,685.0
196.057,801.0
196.13,718.0
196.2029,773.0
196.2759,722.0
196.3488,726.0
196.4218,734.0
196.4947,801.0
196.5676,706.0
196.6406,797.0
196.7135,679.0
196.7864,777.0
196.8593,706.0
196.9323,793.0
197.0052,698.0
197.0781,799.0
197.151,650.0
197.2239,773.0
197.2969,684.0
197.3697,741.0
197.4427,667.0
197.5156,785.0
197.5885,690.0
197.6614,760.0
197.7343,676.0
197.8072,795.0
197.88,664.0
197.9529,731.0
198.0258,688.0
198.0987,808.0
198.1716,687.0
198.2445,748.0
198.3173,725.0
198.3902,744.0
198.4631,700.0
198.5359,793.0
198.6088,648.0
198.6817,774.0
198.7545,728.0
198.8274,732.0
198.9003,708.0
198.9731,748.0
199.046,669.0
199.1188,802.0
199.1917,680.0
199.2645,768.0
199.3373,730.0
199.4102,726.0
199.483,715.0
199.5559,704.0
199.6287,740.0
199.7015,763.0
199.7744,719.0
199.8472,751.0
199.92,678.0
199.9928,732.0
200.0656,731.0
200.1385,759.0
200.2113,663.0
200.2841,769.0
200.3569,658.0
200.4297,771.0
200.5025,673.0
200.5753,771.0
200.6481,670.0
200.7209,725.0
200.7937,703.0
200.8665,702.0
200.9393,679.0
201.0121,773.0
201.0848,660.0
201.1576,781.0
201.2304,629.0
201.3032,783.0
201.3759,704.0
201.4487,732.0
201.5215,686.0
201.5943,764.0
201.667,695.0
201.7398,738.0
201.8125,680.0
201.8853,749.0
201.958,658.0
202.0308,775.0
202.1035,675.0
202.1763,766.0
202.249,694.0
202.3218,719.0
202.3945,671.0
202.4673,807.0
202.54,749.0
202.6127,769.0
202.6855,653.0
202.7582,773.0
202.8309,679.0
202.9036,736.0
202.9764,658.0
203.0491,786.0
203.1218,678.0
203.1945,739.0
203.2672,676.0
203.3399,759.0
203.4126,683.0
203.4853,765.0
203.558,635.0
203.6307,776.0
203.7034,673.0
203.7761,747.0
203.8488,690.0
203.9215,775.0
203.9942,690.0
204.0669,738.0
204.1395,677.0
204.2122,741.0
204.2849,685.0
204.3576,759.0
204.4302,661.0
204.5029,818.0
204.5756,724.0
204.6482,730.0
204.7209,685.0
204.7935,746.0
204.8662,685.0
204.9389,798.0
205.0115,707.0
205.0842,786.0
205.1568,707.0
205.2294,720.0
205.3021,715.0
205.3747,687.0
205.4474,685.0
205.52,737.0
205.5926,690.0
205.6653,811.0
205.7379,709.0
205.8105,764.0
205.8831,704.0
205.9557,757.0
206.0284,699.0
206.101,756.0
206.1736,700.0
206.2462,800.0
206.3188,688.0
206.3914,769.0
206.464,700.0
206.5366,768.0
206.6092,638.0
206.6818,776.0
206.7544,706.0
206.827,764.0
206.8996,650.0
206.9721,739.0
207.0447,718.0
207.1173,761.0
207.1899,710.0
207.2625,793.0
207.335,683.0
207.4076,773.0
207.4802,692.0
207.5527,771.0
207.6253,692.0
207.6978,783.0
207.7704,706.0
207.843,744.0
207.9155,679.0
207.9881,770.0
208.0606,679.0
208.1331,763.0
208.2057,724.0
208.2782,759.0
208.3508,749.0
208.4233,777.0
208.4958,701.0
208.5684,782.0
208.6409,685.0
208.7134,748.0
208.7859,666.0
208.8584,764.0
208.931,677.0
209.0035,760.0
209.076,662.0
209.1485,803.0
209.221,678.0
209.2935,740.0
209.366,722.0
209.4385,787.0
209.511,659.0
209.5835,739.0
209.656,688.0
209.7285,775.0
209.801,661.0
209.8735,775.0
209.9459,725.0
210.0184,750.0
210.0909,705.0
210.1634,724.0
210.2358,683.0
210.3083,738.0
210.3808,671.0
210.4532,750.0
210.5257,686.0
210.5982,761.0
210.6706,673.0
210.7431,693.0
210.8155,689.0
210.888,733.0
210.9604,674.0
211.0329,778.0
211.1053,632.0
211.1777,738.0
211.2502,688.0
211.3226,707.0
211.3951,673.0
211.4675,756.0
211.5399,693.0
211.6123,744.0
211.6847,685.0
211.7572,766.0
211.8296,702.0
211.902,760.0
211.9744,680.0
212.0468,746.0
212.1192,675.0
212.1917,745.0
212.264,680.0
212.3364,760.0
212.4088,695.0
212.4812,799.0
212.5536,712.0
212.626,776.0
212.6984,678.0
212.7708,755.0
212.8432,693.0
212.9155,784.0
212.9879,672.0
213.0603,727.0
213.1326,693.0
213.205,766.0
213.2774,690.0
213.3498,744.0
213.4221,689.0
213.4945,762.0
213.5668,665.0
213.6392,759.0
213.7115,692.0
213.7839,774.0
213.8562,681.0
213.9286,688.0
214.0009,709.0
214.0732,736.0
214.1456,723.0
214.2179,780.0
214.2903,686.0
214.3626,740.0
214.4349,686.0
214.5072,797.0
214.5796,672.0
214.6519,741.0
214.7242,718.0
214.7965,769.0
214.8688,690.0
214.9411,746.0
215.0134,700.0
215.0857,819.0
215.158,686.0
215.2303,797.0
215.3026,701.0
215.3749,788.0
215.4472,677.0
215.5195,779.0
215.5918,668.0
215.6641,738.0
215.7363,712.0
215.8086,758.0
215.8809,729.0
215.9532,784.0
216.0254,689.0
216.0977,724.0
216.17,691.0
216.2422,784.0
216.3145,708.0
216.3867,774.0
216.459,684.0
216.5313,771.0
216.6035,702.0
216.6758,750.0
216.748,687.0
216.8202,754.0
216.8925,717.0
216.9647,785.0
217.037,731.0
217.1092,789.0
217.1814,711.0
217.2536,764.0
217.3259,700.0
217.3981,753.0
217.4703,688.0
217.5425,771.0
217.6147,728.0
217.687,790.0
217.7592,744.0
217.8314,798.0
217.9035,671.0
217.9758,766.0
218.048,739.0
218.1201,800.0
218.1924,719.0
218.2645,801.0
218.3367,671.0
218.4089,779.0
218.4811,688.0
218.5533,789.0
218.6255,662.0
218.6976,767.0
218.7698,741.0
218.842,796.0
218.9142,722.0
218.9863,797.0
219.0585,747.0
219.1306,768.0
219.2028,718.0
219.2749,769.0
219.3471,756.0
219.4193,809.0
219.4914,694.0
219.5636,793.0
219.6357,786.0
219.7078,796.0
219.78,726.0
219.8521,825.0
219.9242,732.0
219.9964,831.0
220.0685,762.0
220.1406,801.0
220.2128,774.0
220.2849,780.0
220.357,707.0
220.4291,797.0
220.5012,742.0
220.5733,803.0
220.6454,744.0
220.7175,821.0
220.7896,752.0
220.8617,817.0
220.9338,723.0
221.0059,792.0
221.078,764.0
221.1501,782.0
221.2222,724.0
221.2943,829.0
221.3663,704.0
221.4384,816.0
221.5105,799.0
221.5826,818.0
221.6546,736.0
221.7267,806.0
221.7988,754.0
221.8708,853.0
221.9429,733.0
222.015,796.0
222.087,741.0
222.1591,811.0
222.2311,742.0
222.3032,840.0
222.3752,736.0
222.4473,826.0
222.5193,705.0
222.5913,739.0
222.6634,726.0
222.7354,810.0
222.8074,731.0
222.8795,834.0
222.9515,713.0
223.0235,775.0
223.0955,705.0
223.1675,773.0
223.2395,755.0
223.3116,798.0
223.3836,699.0
223.4556,822.0
223.5276,740.0
223.5996,817.0
223.6716,739.0
223.7436,801.0
223.8156,737.0
223.8876,834.0
223.9595,752.0
224.0315,787.0
224.1035,762.0
224.1755,788.0
224.2475,735.0
224.3195,812.0
224.3914,787.0
224.4634,859.0
224.5354,720.0
224.6073,843.0
224.6793,728.0
224.7512,819.0
224.8232,743.0
224.8952,820.0
224.9671,725.0
225.0391,810.0
225.111,789.0
225.1829,825.0
225.2549,758.0
225.3268,818.0
225.3988,771.0
225.4707,870.0
225.5426,790.0
225.6146,861.0
225.6865,763.0
225.7584,823.0
225.8303,771.0
225.9022,829.0
225.9742,748.0
226.0461,823.0
226.118,783.0
226.1899,867.0
226.2618,740.0
226.3337,900.0
226.4056,763.0
226.4775,875.0
226.5494,801.0
226.6213,858.0
226.6932,802.0
226.7651,843.0
226.8369,735.0
226.9088,868.0
226.9807,773.0
227.0526,867.0
227.1245,719.0
227.1963,805.0
227.2682,750.0
227.3401,854.0
227.4119,717.0
227.4838,769.0
227.5556,772.0
227.6275,871.0
227.6993,753.0
227.7712,848.0
227.8431,744.0
227.9149,800.0
227.9867,767.0
228.0586,788.0
228.1304,710.0
228.2023,826.0
228.2741,762.0
228.3459,849.0
228.4177,762.0
228.4896,829.0
228.5614,769.0
228.6332,811.0
228.705,824.0
228.7768,823.0
228.8486,786.0
228.9205,882.0
228.9923,795.0
229.0641,840.0
229.1359,813.0
229.2077,873.0
229.2794,815.0
229.3513,903.0
229.423,888.0
229.4948,986.0
229.5666,992.0
229.6384,1155.0
229.7102,1061.0
229.782,1026.0
229.8537,853.0
229.9255,848.0
229.9973,855.0
230.069,808.0
230.1408,719.0
230.2126,854.0
230.2843,714.0
230.3561,821.0
230.4278,726.0
230.4996,821.0
230.5713,727.0
230.6431,777.0
230.7148,752.0
230.7866,773.0
230.8583,748.0
230.93,797.0
231.0018,786.0
231.0735,774.0
231.1452,676.0
231.2169,820.0
231.2887,684.0
231.3604,809.0
231.4321,721.0
231.5038,862.0
231.5755,742.0
231.6472,802.0
231.7189,728.0
231.7906,826.0
231.8624,725.0
231.9341,825.0
232.0057,711.0
232.0774,800.0
232.1491,741.0
232.2208,784.0
232.2925,734.0
232.3642,837.0
232.4359,778.0
232.5075,834.0
232.5792,768.0
232.6509,857.0
232.7225,734.0
232.7942,817.0
232.8659,717.0
232.9375,798.0
233.0092,774.0
233.0809,813.0
233.1525,740.0
233.2242,824.0
233.2958,749.0
233.3675,787.0
233.4391,724.0
233.5107,802.0
233.5824,722.0
233.654,818.0
233.7256,727.0
233.7973,812.0
233.8689,737.0
233.9405,819.0
234.0121,785.0
234.0838,783.0
234.1554,702.0
234.227,788.0
234.2986,719.0
234.3702,782.0
234.4418,679.0
234.5134,815.0
234.585,708.0
234.6566,779.0
234.7282,753.0
234.7998,813.0
234.8714,711.0
234.943,848.0
235.0146,743.0
235.0862,808.0
235.1577,758.0
235.2293,757.0
235.3009,710.0
235.3725,837.0
235.444,756.0
235.5156,847.0
235.5872,718.0
235.6587,797.0
235.7303,706.0
235.8018,814.0
235.8734,735.0
235.9449,795.0
236.0165,728.0
236.088,827.0
236.1596,741.0
236.2311,795.0
236.3026,765.0
236.3742,818.0
236.4457,767.0
236.5172,826.0
236.5887,753.0
236.6603,764.0
236.7318,741.0
236.8033,857.0
236.8748,717.0
236.9464,820.0
237.0179,746.0
237.0894,806.0
237.1609,796.0
237.2324,802.0
237.3039,754.0
237.3754,823.0
237.4469,757.0
237.5184,862.0
237.5898,741.0
237.6613,827.0
237.7328,769.0
237.8043,852.0
237.8758,773.0
237.9472,836.0
238.0187,735.0
238.0902,856.0
238.1617,792.0
238.2331,868.0
238.3046,776.0
238.376,807.0
238.4475,774.0
238.519,834.0
238.5904,752.0
238.6618,772.0
238.7333,791.0
238.8047,823.0
238.8762,731.0
238.9476,852.0
239.0191,732.0
239.0905,843.0
239.1619,781.0
239.2334,853.0
239.3048,724.0
239.3762,854.0
239.4476,757.0
239.519,862.0
239.5904,792.0
239.6619,822.0
239.7333,771.0
239.8047,856.0
239.8761,743.0
239.9475,860.0
240.0189,757.0
240.0903,801.0
240.1617,776.0
240.233,833.0
240.3044,746.0
240.3758,884.0
240.4472,748.0
240.5186,852.0
240.59,756.0
240.6613,843.0
240.7327,722.0
240.8041,850.0
240.8754,772.0
240.9468,828.0
241.0181,763.0
241.0895,857.0
241.1609,809.0
241.2322,844.0
241.3036,774.0
241.3749,847.0
241.4462,806.0
241.5176,888.0
241.5889,790.0
241.6602,861.0
241.7316,751.0
241.8029,887.0
241.8743,764.0
241.9456,871.0
242.0169,790.0
242.0882,805.0
242.1595,783.0
242.2309,824.0
242.3022,765.0
242.3735,881.0
242.4448,736.0
242.5161,829.0
242.5874,778.0
242.6587,810.0
242.73,770.0
242.8013,828.0
242.8726,736.0
242.9438,845.0
243.0151,773.0
243.0864,845.0
243.1577,758.0
243.229,844.0
243.3002,784.0
243.3715,822.0
243.4428,758.0
243.5141,839.0
243.5853,762.0
243.6566,854.0
243.7278,695.0
243.7991,853.0
243.8703,747.0
243.9416,853.0
244.0128,747.0
244.0841,823.0
244.1553,768.0
244.2266,865.0
244.2978,736.0
244.369,845.0
244.4402,757.0
244.5115,796.0
244.5827,802.0
244.6539,874.0
244.7251,776.0
244.7964,822.0
244.8676,770.0
244.9388,827.0
245.01,777.0
245.0812,820.0
245.1524,799.0
245.2236,835.0
245.2948,799.0
245.366,872.0
245.4372,770.0
245.5084,821.0
245.5796,701.0
245.6507,819.0
245.7219,750.0
245.7931,817.0
245.8643,788.0
245.9355,810.0
246.0066,767.0
246.0778,799.0
246.149,732.0
246.2201,824.0
246.2913,739.0
246.3624,811.0
246.4336,735.0
246.5047,844.0
246.5759,760.0
246.647,785.0
246.7182,723.0
246.7893,877.0
246.8605,752.0
246.9316,856.0
247.0027,726.0
247.0739,817.0
247.145,726.0
247.2161,810.0
247.2872,760.0
247.3584,803.0
247.4295,764.0
247.5006,831.0
247.5717,781.0
247.6428,892.0
247.7139,909.0
247.785,1016.0
247.8561,967.0
247.9272,1188.0
247.9983,1020.0
248.0694,1020.0
248.1405,936.0
248.2116,917.0
248.2827,816.0
248.3537,846.0
248.4248,762.0
248.4959,820.0
248.5669,740.0
248.638,846.0
248.7091,741.0
248.7802,855.0
248.8512,686.0
248.9223,838.0
248.9933,781.0
249.0644,752.0
249.1354,769.0
249.2065,839.0
249.2775,773.0
249.3486,818.0
249.4196,712.0
249.4906,818.0
249.5617,751.0
249.6327,816.0
249.7037,703.0
249.7747,830.0
249.8458,707.0
249.9168,813.0
249.9878,748.0
250.0588,831.0
250.1298,729.0
250.2009,815.0
250.2719,782.0
250.3429,832.0
250.4138,795.0
250.4849,860.0
250.5558,777.0
250.6268,841.0
250.6978,796.0
250.7688,865.0
250.8398,806.0
250.9108,956.0
250.9818,860.0
251.0527,880.0
251.1237,846.0
251.1947,923.0
251.2657,854.0
251.3366,870.0
251.4076,780.0
251.4785,853.0
251.5495,749.0
251.6205,863.0
251.6914,755.0
251.7623,856.0
251.8333,774.0
251.9042,806.0
251.9752,743.0
252.0461,821.0
252.1171,738.0
252.188,781.0
252.2589,759.0
252.3298,839.0
252.4008,764.0
252.4717,847.0
252.5426,754.0
252.6135,805.0
252.6844,761.0
252.7553,812.0
252.8262,757.0
252.8971,827.0
252.9681,768.0
253.039,820.0
253.1098,752.0
253.1808,804.0
253.2516,761.0
253.3225,818.0
253.3934,786.0
253.4643,782.0
253.5352,728.0
253.606,828.0
253.6769,775.0
253.7478,825.0
253.8187,801.0
253.8895,794.0
253.9604,750.0
254.0312,795.0
254.1021,686.0
254.173,802.0
254.2438,725.0
254.3147,849.0
254.3855,747.0
254.4563,773.0
254.5272,743.0
254.598,822.0
254.6689,760.0
254.7397,839.0
254.8105,742.0
254.8813,789.0
254.9522,757.0
255.023,796.0
255.0938,729.0
255.1646,817.0
255.2354,706.0
255.3062,870.0
255.3771,714.0
255.4479,810.0
255.5187,704.0
255.5894,777.0
255.6603,779.0
255.731,835.0
255.8018,741.0
255.8726,840.0
255.9434,746.0
256.0142,819.0
256.085,729.0
256.1558,822.0
256.2265,754.0
256.2973,855.0
256.3681,735.0
256.4388,838.0
256.5096,729.0
256.5804,821.0
256.6511,743.0
256.7219,839.0
256.7926,777.0
256.8634,844.0
256.9341,760.0
257.0049,843.0
257.0756,753.0
257.1463,840.0
257.2171,814.0
257.2878,856.0
257.3585,743.0
257.4292,820.0
257.5,770.0
257.5707,845.0
257.6414,730.0
257.7122,795.0
257.7828,730.0
257.8535,821.0
257.9243,746.0
257.995,815.0
258.0657,785.0
258.1364,877.0
258.2071,734.0
258.2777,809.0
258.3484,739.0
258.4191,776.0
258.4898,740.0
258.5605,773.0
258.6312,750.0
258.7018,835.0
258.7725,750.0
258.8432,798.0
258.9139,716.0
258.9845,761.0
259.0552,709.0
259.1259,805.0
259.1965,749.0
259.2672,798.0
259.3378,728.0
259.4085,744.0
259.4791,698.0
259.5497,770.0
259.6204,671.0
259.691,804.0
259.7617,722.0
259.8323,771.0
259.9029,737.0
259.9735,793.0
260.0442,714.0
260.1147,749.0
260.1854,705.0
260.256,804.0
260.3267,696.0
260.3972,851.0
260.4678,768.0
260.5384,804.0
260.6091,740.0
260.6796,826.0
260.7502,715.0
260.8208,824.0
260.8914,706.0
260.962,798.0
261.0326,751.0
261.1032,789.0
261.1737,736.0
261.2444,801.0
261.3149,747.0
261.3854,819.0
261.456,726.0
261.5266,820.0
261.5971,742.0
261.6677,827.0
261.7383,731.0
261.8088,809.0
261.8794,738.0
261.9499,809.0
262.0205,763.0
262.091,803.0
262.1615,736.0
262.2321,861.0
262.3026,816.0
262.3731,835.0
262.4437,723.0
262.5142,810.0
262.5847,772.0
262.6552,804.0
262.7257,753.0
262.7962,857.0
262.8668,777.0
262.9373,836.0
263.0078,764.0
263.0783,824.0
263.1488,746.0
263.2193,822.0
263.2898,768.0
263.3603,848.0
263.4307,758.0
263.5012,881.0
263.5717,793.0
263.6422,854.0
263.7127,798.0
263.7831,829.0
263.8536,752.0
263.9241,824.0
263.9945,761.0
264.065,877.0
264.1354,752.0
264.2059,828.0
264.2764,760.0
264.3468,842.0
264.4173,734.0
264.4877,878.0
264.5581,766.0
264.6286,874.0
264.699,769.0
264.7694,817.0
264.8399,743.0
264.9103,809.0
264.9807,727.0
265.0511,814.0
265.1216,754.0
265.192,835.0
265.2625,708.0
265.3328,815.0
265.4032,729.0
265.4736,777.0
265.5441,759.0
265.6144,810.0
265.6848,715.0
265.7552,814.0
265.8256,750.0
265.896,813.0
265.9664,713.0
266.0368,801.0
266.1071,739.0
266.1775,783.0
266.2479,732.0
266.3183,796.0
266.3886,758.0
266.459,831.0
266.5294,729.0
266.5998,854.0
266.6701,732.0
266.7404,839.0
266.8108,745.0
266.8812,810.0
266.9515,713.0
267.0219,822.0
267.0922,735.0
267.1625,844.0
267.2328,757.0
267.3032,866.0
267.3735,751.0
267.4438,773.0
267.5142,724.0
267.5845,792.0
267.6548,789.0
267.7251,785.0
267.7954,726.0
267.8657,776.0
267.936,726.0
268.0063,796.0
268.0766,730.0
268.1469,791.0
268.2172,756.0
268.2875,789.0
268.3578,700.0
268.4281,777.0
268.4984,773.0
268.5686,776.0
268.6389,710.0
268.7092,794.0
268.7794,744.0
268.8498,810.0
268.92,700.0
268.9902,827.0
269.0605,713.0
269.1308,776.0
269.201,731.0
269.2713,798.0
269.3415,753.0
269.4118,778.0
269.482,732.0
269.5523,825.0
269.6225,685.0
269.6927,818.0
269.7629,755.0
269.8332,800.0
269.9034,680.0
269.9736,762.0
270.0439,739.0
270.114,799.0
270.1843,716.0
270.2545,768.0
270.3247,719.0
270.3949,755.0
270.4651,761.0
270.5353,800.0
270.6055,748.0
270.6757,823.0
270.7459,719.0
270.8161,828.0
270.8863,762.0
270.9564,822.0
271.0266,745.0
271.0968,847.0
271.167,740.0
271.2371,829.0
271.3073,737.0
271.3775,838.0
271.4476,721.0
271.5178,846.0
271.588,780.0
271.6581,828.0
271.7282,721.0
271.7984,840.0
271.8685,759.0
271.9387,836.0
272.0088,742.0
272.0789,836.0
272.1491,780.0
272.2192,857.0
272.2893,792.0
272.3595,863.0
272.4296,738.0
272.4997,898.0
272.5698,742.0
272.64,874.0
272.7101,789.0
272.7802,811.0
272.8503,773.0
272.9204,821.0
272.9904,731.0
273.0605,884.0
273.1306,793.0
273.2007,870.0
273.2708,732.0
273.3409,823.0
273.411,748.0
273.481,802.0
273.5511,733.0
273.6212,880.0
273.6913,807.0
273.7614,864.0
273.8314,791.0
273.9015,840.0
273.9715,772.0
274.0416,865.0
274.1116,726.0
274.1817,875.0
274.2517,800.0
274.3217,882.0
274.3918,800.0
274.4619,867.0
274.5319,767.0
274.602,826.0
274.6719,823.0
274.742,870.0
274.812,815.0
274.882,841.0
274.952,769.0
275.0221,921.0
275.0921,773.0
275.1621,839.0
275.2321,782.0
275.3021,862.0
275.3721,796.0
275.4421,820.0
275.5121,755.0
275.5821,881.0
275.6521,789.0
275.722,856.0
275.792,798.0
275.862,855.0
275.932,792.0
276.002,912.0
276.0719,770.0
276.1418,885.0
276.2119,771.0
276.2818,874.0
276.3517,786.0
276.4218,849.0
276.4917,784.0
276.5616,825.0
276.6316,779.0
276.7015,877.0
276.7715,760.0
276.8414,828.0
276.9113,696.0
276.9813,841.0
277.0512,738.0
277.1211,822.0
277.191,778.0
277.261,848.0
277.3309,756.0
277.4008,841.0
277.4707,763.0
277.5406,845.0
277.6105,766.0
277.6804,810.0
277.7503,748.0
277.8202,823.0
277.8901,764.0
277.96,829.0
278.0299,709.0
278.0998,816.0
278.1697,725.0
278.2396,818.0
278.3094,738.0
278.3793,868.0
278.4492,738.0
278.519,794.0
278.5889,749.0
278.6588,849.0
278.7286,768.0
278.7985,817.0
278.8683,785.0
278.9382,856.0
279.0081,808.0
279.0779,842.0
279.1477,756.0
279.2176,818.0
279.2874,770.0
279.3572,878.0
279.4271,773.0
279.4969,878.0
279.5667,797.0
279.6365,859.0
279.7063,735.0
279.7762,876.0
279.846,777.0
279.9158,878.0
279.9856,759.0
280.0554,823.0
280.1252,810.0
280.195,836.0
280.2648,761.0
280.3346,859.0
280.4044,803.0
280.4742,891.0
280.544,778.0
280.6137,872.0
280.6835,827.0
280.7533,857.0
280.8231,787.0
280.8928,893.0
280.9626,832.0
281.0323,863.0
281.1021,768.0
281.1719,905.0
281.2416,790.0
281.3114,874.0
281.3811,797.0
281.4509,842.0
281.5206,776.0
281.5904,885.0
281.6601,759.0
281.7299,868.0
281.7996,797.0
281.8693,858.0
281.939,756.0
282.0088,865.0
282.0784,782.0
282.1482,840.0
282.2179,791.0
282.2876,888.0
282.3573,788.0
282.427,853.0
282.4967,814.0
282.5664,863.0
282.6361,782.0
282.7058,870.0
282.7755,798.0
282.8452,873.0
282.9149,799.0
282.9845,851.0
283.0542,789.0
283.1239,831.0
283.1936,798.0
283.2632,895.0
283.3329,791.0
283.4026,834.0
283.4722,815.0
283.5419,883.0
283.6115,815.0
283.6812,903.0
283.7508,837.0
283.8205,865.0
283.8901,775.0
283.9597,845.0
284.0294,785.0
284.099,884.0
284.1686,788.0
284.2383,903.0
284.3079,758.0
284.3775,864.0
284.4471,790.0
284.5168,874.0
284.5864,767.0
284.656,839.0
284.7256,786.0
284.7952,857.0
284.8648,783.0
284.9344,875.0
285.004,775.0
285.0736,891.0
285.1432,782.0
285.2128,867.0
285.2823,757.0
285.3519,897.0
285.4215,759.0
285.4911,867.0
285.5606,791.0
285.6302,860.0
285.6998,750.0
285.7693,845.0
285.8389,733.0
285.9084,835.0
285.978,770.0
286.0475,803.0
286.1171,752.0
286.1866,814.0
286.2562,767.0
286.3257,829.0
286.3952,783.0
286.4648,870.0
286.5343,753.0
286.6039,795.0
286.6733,766.0
286.7429,871.0
286.8124,757.0
286.8819,824.0
286.9514,751.0
287.0209,877.0
287.0904,761.0
287.1599,880.0
287.2294,826.0
287.299,849.0
287.3684,786.0
287.4379,894.0
287.5074,744.0
287.5769,841.0
287.6464,788.0
287.7159,843.0
287.7853,799.0
287.8548,842.0
287.9243,738.0
287.9937,798.0
288.0632,807.0
288.1327,863.0
288.2021,799.0
288.2716,837.0
288.341,773.0
288.4105,865.0
288.4799,775.0
288.5493,831.0
288.6188,742.0
288.6882,808.0
288.7577,728.0
288.8271,903.0
288.8965,757.0
288.9659,895.0
289.0354,770.0
289.1048,848.0
289.1742,777.0
289.2436,816.0
289.313,761.0
289.3824,853.0
289.4518,802.0
289.5212,890.0
289.5906,714.0
289.66,846.0
289.7294,770.0
289.7988,849.0
289.8682,789.0
289.9376,773.0
290.007,789.0
290.0764,873.0
290.1457,784.0
290.2151,848.0
290.2844,808.0
290.3538,898.0
290.4232,770.0
290.4925,856.0
290.5619,746.0
290.6312,850.0
290.7006,753.0
290.7699,869.0
290.8393,794.0
290.9086,855.0
290.978,825.0
291.0473,824.0
291.1166,764.0
291.1859,839.0
291.2553,771.0
291.3246,872.0
291.3939,828.0
291.4632,852.0
291.5325,779.0
291.6018,891.0
291.6712,770.0
291.7405,870.0
291.8098,790.0
291.8791,905.0
291.9484,813.0
292.0176,883.0
292.0869,767.0
292.1562,843.0
292.2255,814.0
292.2948,896.0
292.3641,799.0
292.4334,901.0
292.5026,807.0
292.5719,905.0
292.6412,784.0
292.7104,873.0
292.7797,864.0
292.8489,899.0
292.9182,808.0
292.9875,864.0
293.0567,784.0
293.1259,904.0
293.1952,761.0
293.2644,862.0
293.3336,770.0
293.4029,856.0
293.4721,776.0
293.5413,862.0
293.6106,829.0
293.6798,905.0
293.749,778.0
293.8182,880.0
293.8875,815.0
293.9566,884.0
294.0259,764.0
294.0951,869.0
294.1642,794.0
294.2334,901.0
294.3026,798.0
294.3718,860.0
294.441,834.0
294.5102,907.0
294.5794,796.0
294.6485,863.0
294.7177,790.0
294.7869,853.0
294.8561,841.0
294.9253,894.0
294.9944,757.0
295.0636,891.0
295.1327,794.0
295.2019,882.0
295.271,791.0
295.3402,846.0
295.4093,801.0
295.4785,881.0
295.5476,795.0
295.6168,877.0
295.6859,781.0
295.755,862.0
295.8241,780.0
295.8932,881.0
295.9623,788.0
296.0315,890.0
296.1006,771.0
296.1697,878.0
296.2388,802.0
296.3079,810.0
296.377,793.0
296.4461,887.0
296.5152,795.0
296.5843,925.0
296.6534,779.0
296.7225,860.0
296.7916,779.0
296.8606,891.0
296.9297,824.0
296.9988,877.0
297.0679,766.0
297.137,879.0
297.206,799.0
297.2751,890.0
297.3441,774.0
297.4132,859.0
297.4823,813.0
297.5513,857.0
297.6204,785.0
297.6894,857.0
297.7584,767.0
297.8275,890.0
297.8965,780.0
297.9655,890.0
298.0346,822.0
298.1036,871.0
298.1726,819.0
298.2417,872.0
298.3106,829.0
298.3797,911.0
298.4487,827.0
298.5177,889.0
298.5867,830.0
298.6557,900.0
298.7247,813.0
298.7937,887.0
298.8627,822.0
298.9317,915.0
299.0007,752.0
299.0696,860.0
299.1386,753.0
299.2076,891.0
299.2766,817.0
299.3456,888.0
299.4145,874.0
299.4835,878.0
299.5524,831.0
299.6214,868.0
299.6903,778.0
299.7593,905.0
299.8282,813.0
299.8972,859.0
299.9661,828.0
300.0351,903.0
300.104,782.0
300.173,896.0
300.2419,807.0
300.3108,894.0
300.3797,753.0
300.4487,929.0
300.5176,824.0
300.5865,881.0
300.6554,821.0
300.7243,888.0
300.7932,762.0
300.8621,894.0
300.931,802.0
300.9999,920.0
301.0688,836.0
301.1377,873.0
301.2066,827.0
301.2755,901.0
301.3444,774.0
301.4132,874.0
301.4821,834.0
301.551,905.0
301.6199,882.0
301.6887,939.0
301.7576,807.0
301.8265,923.0
301.8953,822.0
301.9642,861.0
302.033,829.0
302.1019,907.0
302.1707,811.0
302.2396,919.0
302.3084,796.0
302.3772,936.0
302.4461,813.0
302.5149,885.0
302.5837,821.0
302.6526,896.0
302.7214,804.0
302.7902,922.0
302.859,808.0
302.9278,882.0
302.9966,836.0
303.0654,932.0
303.1342,819.0
303.203,858.0
303.2718,817.0
303.3406,934.0
303.4094,830.0
303.4781,869.0
303.547,817.0
303.6158,894.0
303.6845,797.0
303.7533,913.0
303.8221,864.0
303.8908,940.0
303.9596,805.0
304.0284,914.0
304.0971,838.0
304.1659,910.0
304.2346,834.0
304.3034,864.0
304.3721,823.0
304.4409,885.0
304.5096,825.0
304.5784,915.0
304.6471,806.0
304.7158,921.0
304.7845,814.0
304.8533,906.0
304.922,839.0
304.9907,895.0
305.0594,820.0
305.1281,919.0
305.1969,807.0
305.2656,883.0
305.3343,841.0
305.403,894.0
305.4717,859.0
305.5403,929.0
305.609,833.0
305.6778,928.0
305.7464,791.0
305.8151,865.0
305.8838,802.0
305.9525,928.0
306.0211,798.0
306.0898,871.0
306.1585,768.0
306.2271,879.0
306.2958,810.0
306.3645,895.0
306.4331,809.0
306.5017,850.0
306.5704,813.0
306.6391,923.0
306.7077,795.0
306.7763,916.0
306.845,801.0
306.9136,882.0
306.9822,835.0
307.0508,899.0
307.1195,860.0
307.1881,888.0
307.2567,829.0
307.3253,895.0
307.3939,861.0
307.4625,904.0
307.5312,760.0
307.5998,902.0
307.6684,819.0
307.7369,846.0
307.8055,822.0
307.8741,916.0
307.9427,813.0
308.0113,899.0
308.0799,797.0
308.1484,905.0
308.217,786.0
308.2856,846.0
308.3542,781.0
308.4227,906.0
308.4913,812.0
308.5598,901.0
308.6284,829.0
308.6969,908.0
308.7655,833.0
308.834,896.0
308.9026,866.0
308.9711,854.0
309.0396,736.0
309.1082,892.0
309.1767,808.0
309.2452,873.0
309.3138,799.0
309.3823,880.0
309.4508,816.0
309.5193,850.0
309.5878,850.0
309.6563,903.0
309.7249,810.0
309.7933,872.0
309.8618,811.0
309.9303,911.0
309.9988,789.0
310.0673,939.0
310.1358,828.0
310.2043,863.0
310.2728,855.0
310.3412,910.0
310.4097,785.0
310.4781,876.0
310.5466,839.0
310.6151,873.0
310.6836,821.0
310.752,850.0
310.8205,776.0
310.8889,867.0
310.9574,782.0
311.0258,866.0
311.0943,761.0
311.1627,876.0
311.2311,827.0
311.2996,865.0
311.368,807.0
311.4364,866.0
311.5049,794.0
311.5733,919.0
311.6417,792.0
311.7101,885.0
311.7785,807.0
311.8469,881.0
311.9153,833.0
311.9837,880.0
312.0521,798.0
312.1205,875.0
312.1889,770.0
312.2573,850.0
312.3257,802.0
312.3941,861.0
312.4624,815.0
312.5308,857.0
312.5992,761.0
312.6675,869.0
312.7359,774.0
312.8043,855.0
312.8727,740.0
312.941,902.0
313.0093,808.0
313.0777,863.0
313.1461,789.0
313.2144,876.0
313.2827,751.0
313.3511,834.0
313.4194,775.0
313.4877,816.0
313.5561,760.0
313.6244,865.0
313.6927,781.0
313.761,839.0
313.8294,722.0
313.8977,828.0
313.966,722.0
314.0343,836.0
314.1026,767.0
314.1709,873.0
314.2392,776.0
314.3075,841.0
314.3758,762.0
314.4441,883.0
314.5124,768.0
314.5806,824.0
314.6489,768.0
314.7172,871.0
314.7855,791.0
314.8537,844.0
314.922,756.0
314.9903,864.0
315.0585,745.0
315.1268,857.0
315.195,782.0
315.2633,860.0
315.3315,796.0
315.3998,842.0
315.468,790.0
315.5362,825.0
315.6045,788.0
315.6727,840.0
315.7409,779.0
315.8092,869.0
315.8774,764.0
315.9456,876.0
316.0138,818.0
316.082,889.0
316.1502,784.0
316.2184,904.0
316.2867,812.0
316.3549,907.0
316.423,764.0
316.4912,892.0
316.5594,814.0
316.6276,930.0
316.6958,821.0
316.764,866.0
316.8322,778.0
316.9003,847.0
316.9685,789.0
317.0367,922.0
317.1049,801.0
317.173,917.0
317.2411,897.0
317.3093,914.0
317.3774,791.0
317.4456,888.0
317.5137,804.0
317.5819,926.0
317.65,815.0
317.7182,897.0
317.7863,830.0
317.8545,896.0
317.9225,803.0
317.9907,879.0
318.0588,802.0
318.1269,933.0
318.195,870.0
318.2631,915.0
318.3312,799.0
318.3994,881.0
318.4675,780.0
318.5355,919.0
318.6036,833.0
318.6717,895.0
318.7398,808.0
318.8079,872.0
318.876,829.0
318.9441,926.0
319.0121,845.0
319.0802,914.0
319.1483,868.0
319.2164,902.0
319.2844,823.0
319.3525,944.0
319.4205,825.0
319.4886,922.0
319.5566,861.0
319.6247,909.0
319.6927,838.0
319.7608,970.0
319.8288,873.0
319.8968,920.0
319.9648,824.0
320.0329,959.0
320.1009,847.0
320.1689,904.0
320.237,824.0
320.305,898.0
320.373,809.0
320.441,917.0
320.509,846.0
320.577,924.0
320.645,849.0
320.713,936.0
320.781,846.0
320.849,871.0
320.917,800.0
320.985,970.0
321.0529,842.0
321.1209,947.0
321.1889,839.0
321.2568,908.0
321.3248,863.0
321.3928,865.0
321.4608,837.0
321.5287,893.0
321.5966,812.0
321.6646,915.0
321.7325,824.0
321.8005,938.0
321.8684,822.0
321.9364,894.0
322.0043,791.0
322.0722,954.0
322.1401,807.0
322.2081,905.0
322.276,841.0
322.344,921.0
322.4119,871.0
322.4797,891.0
322.5477,834.0
322.6156,896.0
322.6835,862.0
322.7514,945.0
322.8193,839.0
322.8871,897.0
322.955,826.0
323.0229,961.0
323.0908,854.0
323.1588,933.0
323.2266,858.0
323.2945,905.0
323.3623,834.0
323.4302,981.0
323.4981,806.0
323.5659,939.0
323.6338,842.0
323.7016,921.0
323.7695,852.0
323.8373,921.0
323.9052,869.0
323.973,953.0
324.0409,816.0
324.1087,988.0
324.1765,850.0
324.2444,932.0
324.3122,868.0
324.38,928.0
324.4479,852.0
324.5157,957.0
324.5834,848.0
324.6512,912.0
324.7191,916.0
324.7869,912.0
324.8547,844.0
324.9225,956.0
324.9903,848.0
325.058,958.0
325.1259,868.0
325.1936,964.0
325.2614,784.0
325.3292,928.0
325.397,879.0
325.4647,910.0
325.5325,858.0
325.6002,902.0
325.668,840.0
325.7358,923.0
325.8036,835.0
325.8713,921.0
325.939,847.0
326.0068,894.0
326.0745,863.0
326.1422,907.0
326.21,842.0
326.2777,947.0
326.3455,823.0
326.4132,947.0
326.4809,843.0
326.5486,925.0
326.6164,875.0
326.6841,879.0
326.7518,873.0
326.8195,919.0
326.8872,848.0
326.9549,941.0
327.0226,825.0
327.0903,922.0
327.158,845.0
327.2256,902.0
327.2933,862.0
327.361,978.0
327.4287,855.0
327.4964,950.0
327.5641,889.0
327.6317,911.0
327.6994,819.0
327.767,983.0
327.8347,867.0
327.9023,946.0
327.97,827.0
328.0376,917.0
328.1053,867.0
328.1729,915.0
328.2406,871.0
328.3082,911.0
328.3759,840.0
328.4435,907.0
328.5111,833.0
328.5787,877.0
328.6463,839.0
328.7139,920.0
328.7816,851.0
328.8492,940.0
328.9168,810.0
328.9843,907.0
329.052,836.0
329.1196,903.0
329.1872,790.0
329.2548,893.0
329.3224,811.0
329.3899,854.0
329.4575,763.0
329.5251,901.0
329.5927,822.0
329.6602,867.0
329.7278,857.0
329.7953,915.0
329.8629,792.0
329.9305,931.0
329.998,825.0
330.0656,886.0
330.1331,819.0
330.2007,886.0
330.2682,797.0
330.3358,856.0
330.4033,817.0
330.4708,875.0
330.5383,791.0
330.6059,914.0
330.6734,842.0
330.7409,850.0
330.8084,803.0
330.876,887.0
330.9435,821.0
331.011,857.0
331.0784,775.0
331.1459,867.0
331.2134,823.0
331.2809,858.0
331.3484,832.0
331.4159,897.0
331.4834,781.0
331.5508,837.0
331.6183,751.0
331.6858,892.0
331.7533,804.0
331.8207,856.0
331.8882,812.0
331.9557,889.0
332.0231,808.0
332.0906,904.0
332.1581,818.0
332.2255,862.0
332.2929,754.0
332.3604,894.0
332.4278,820.0
332.4952,821.0
332.5627,779.0
332.6301,901.0
332.6975,797.0
332.7649,898.0
332.8323,760.0
332.8997,897.0
332.9672,812.0
333.0346,914.0
333.102,801.0
333.1694,894.0
333.2368,818.0
333.3042,900.0
333.3716,787.0
333.439,906.0
333.5063,799.0
333.5737,971.0
333.6411,836.0
333.7085,877.0
333.7758,793.0
333.8432,895.0
333.9106,809.0
333.9779,904.0
334.0453,778.0
334.1126,934.0
334.18,823.0
334.2473,906.0
334.3147,794.0
334.382,899.0
334.4494,829.0
334.5167,925.0
334.584,835.0
334.6514,893.0
334.7187,787.0
334.786,898.0
334.8533,822.0
334.9206,903.0
334.9879,756.0
335.0553,911.0
335.1226,785.0
335.1899,889.0
335.2572,841.0
335.3245,888.0
335.3918,815.0
335.459,926.0
335.5263,818.0
335.5936,884.0
335.6609,804.0
335.7282,907.0
335.7954,831.0
335.8627,927.0
335.93,844.0
335.9973,884.0
336.0645,795.0
336.1318,891.0
336.199,841.0
336.2662,922.0
336.3335,836.0
336.4008,907.0
336.468,753.0
336.5352,946.0
336.6024,845.0
336.6697,898.0
336.7369,821.0
336.8041,870.0
336.8714,789.0
336.9386,876.0
337.0058,797.0
337.073,888.0
337.1402,853.0
337.2074,930.0
337.2746,816.0
337.3418,844.0
337.409,824.0
337.4762,860.0
337.5434,843.0
337.6106,928.0
337.6777,826.0
337.7449,930.0
337.8121,812.0
337.8792,865.0
337.9464,772.0
338.0135,869.0
338.0807,769.0
338.1479,892.0
338.2151,808.0
338.2822,872.0
338.3493,792.0
338.4165,850.0
338.4836,788.0
338.5508,910.0
338.6179,774.0
338.6851,876.0
338.7521,859.0
338.8193,882.0
338.8864,821.0
338.9535,911.0
339.0206,820.0
339.0878,843.0
339.1548,833.0
339.222,902.0
339.289,815.0
339.3561,892.0
339.4233,801.0
339.4904,882.0
339.5574,791.0
339.6245,899.0
339.6916,790.0
339.7587,874.0
339.8257,803.0
339.8929,889.0
339.9599,823.0
340.0269,877.0
340.094,791.0
340.1611,863.0
340.2281,710.0
340.2952,839.0
340.3622,774.0
340.4293,835.0
340.4963,821.0
340.5633,865.0
340.6304,837.0
340.6974,869.0
340.7645,775.0
340.8315,894.0
340.8985,776.0
340.9655,850.0
341.0325,752.0
341.0995,881.0
341.1665,815.0
341.2335,870.0
341.3005,815.0
341.3675,888.0
341.4345,750.0
341.5015,849.0
341.5685,777.0
341.6355,883.0
341.7025,812.0
341.7694,903.0
341.8364,826.0
341.9034,906.0
341.9704,809.0
342.0373,888.0
342.1043,781.0
342.1712,867.0
342.2382,785.0
342.3051,876.0
342.3721,786.0
342.4391,894.0
342.506,789.0
342.5729,826.0
342.6398,810.0
342.7068,873.0
342.7737,765.0
342.8406,904.0
342.9076,787.0
342.9745,857.0
343.0414,814.0
343.1083,886.0
343.1752,794.0
343.2421,897.0
343.309,830.0
343.3759,873.0
343.4428,865.0
343.5097,905.0
343.5766,800.0
343.6434,861.0
343.7104,798.0
343.7772,830.0
343.8441,814.0
343.9109,860.0
343.9778,830.0
344.0447,907.0
344.1116,835.0
344.1784,907.0
344.2453,812.0
344.3121,881.0
344.3789,801.0
344.4458,915.0
344.5127,829.0
344.5795,954.0
344.6463,796.0
344.7131,888.0
344.78,811.0
344.8468,872.0
344.9136,799.0
344.9805,904.0
345.0473,802.0
345.1141,887.0
345.1809,792.0
345.2477,929.0
345.3145,832.0
345.3813,877.0
345.4481,811.0
345.5149,922.0
345.5816,816.0
345.6484,902.0
345.7152,804.0
345.782,945.0
345.8488,805.0
345.9155,896.0
345.9823,835.0
346.049,864.0
346.1158,804.0
346.1826,862.0
346.2493,822.0
346.3161,891.0
346.3828,816.0
346.4496,900.0
346.5163,829.0
346.5831,891.0
346.6498,835.0
346.7165,904.0
346.7832,812.0
346.85,890.0
346.9167,817.0
346.9834,885.0
347.0501,802.0
347.1168,890.0
347.1835,849.0
347.2502,898.0
347.3169,828.0
347.3836,927.0
347.4503,817.0
347.517,890.0
347.5837,831.0
347.6504,926.0
347.717,809.0
347.7837,908.0
347.8504,793.0
347.9171,865.0
347.9837,825.0
348.0504,944.0
348.1171,828.0
348.1837,878.0
348.2504,860.0
348.317,938.0
348.3837,802.0
348.4503,930.0
348.5169,807.0
348.5836,896.0
348.6502,771.0
348.7169,883.0
348.7835,869.0
348.8501,933.0
348.9167,832.0
348.9833,953.0
349.0499,831.0
349.1165,880.0
349.1832,848.0
349.2498,912.0
349.3163,872.0
349.3829,939.0
349.4495,842.0
349.5161,918.0
349.5827,866.0
349.6493,964.0
349.7159,787.0
349.7824,905.0
349.849,867.0
349.9156,937.0
349.9821,878.0
350.0487,957.0
350.1153,870.0
350.1818,927.0
350.2484,830.0
350.3149,881.0
350.3814,784.0
350.448,915.0
350.5146,857.0
350.5811,927.0
350.6476,874.0
350.7141,936.0
350.7807,851.0
350.8472,912.0
350.9137,801.0
350.9802,925.0
351.0467,862.0
351.1132,909.0
351.1797,878.0
351.2462,928.0
351.3127,856.0
351.3792,933.0
351.4457,840.0
351.5122,885.0
351.5787,828.0
351.6451,958.0
351.7116,860.0
351.7781,968.0
351.8446,868.0
351.911,942.0
351.9775,887.0
352.044,988.0
352.1104,890.0
352.1769,954.0
352.2433,903.0
352.3098,957.0
352.3762,882.0
352.4427,969.0
352.5091,853.0
352.5755,927.0
352.642,824.0
352.7084,937.0
352.7748,866.0
352.8412,968.0
352.9077,867.0
352.9741,946.0
353.0405,910.0
353.1068,989.0
353.1732,874.0
353.2396,1015.0
353.306,929.0
353.3724,941.0
353.4388,916.0
353.5052,1007.0
353.5716,891.0
353.638,938.0
353.7043,892.0
353.7707,980.0
353.8371,907.0
353.9034,1025.0
353.9698,895.0
354.0362,978.0
354.1025,922.0
354.1689,1023.0
354.2352,902.0
354.3016,999.0
354.3679,925.0
354.4342,1043.0
354.5005,921.0
354.5669,1009.0
354.6332,935.0
354.6996,1022.0
354.7659,939.0
354.8322,1004.0
354.8985,956.0
354.9648,1005.0
355.0311,913.0
355.0974,1057.0
355.1637,940.0
355.23,1060.0
355.2963,938.0
355.3625,990.0
355.4289,904.0
355.4952,1030.0
355.5614,884.0
355.6277,1011.0
355.694,955.0
355.7603,994.0
355.8265,897.0
355.8928,1018.0
355.959,929.0
356.0253,1019.0
356.0916,907.0
356.1578,1024.0
356.224,881.0
356.2903,988.0
356.3565,909.0
356.4228,977.0
356.489,938.0
356.5552,1002.0
356.6214,938.0
356.6876,1014.0
356.7539,924.0
356.8201,1001.0
356.8863,899.0
356.9525,967.0
357.0187,865.0
357.0849,1012.0
357.1511,894.0
357.2173,969.0
357.2835,877.0
357.3497,986.0
357.4158,920.0
357.482,1009.0
357.5482,926.0
357.6144,978.0
357.6805,945.0
357.7467,1060.0
357.8128,954.0
357.879,1071.0
357.9452,941.0
358.0114,1148.0
358.0775,1116.0
358.1436,1199.0
358.2097,1169.0
358.2759,1316.0
358.342,1298.0
358.4082,1360.0
358.4743,1207.0
358.5404,1320.0
358.6065,1162.0
358.6726,1115.0
358.7387,1062.0
358.8049,1123.0
358.871,1030.0
358.9371,1163.0
359.0032,983.0
359.0693,1041.0
359.1353,851.0
359.2014,921.0
359.2676,847.0
359.3336,869.0
359.3997,810.0
359.4658,897.0
359.5318,864.0
359.5979,909.0
359.664,798.0
359.7301,887.0
359.7961,854.0
359.8622,906.0
359.9282,788.0
359.9943,893.0
360.0603,801.0
360.1264,899.0
360.1924,781.0
360.2585,882.0
360.3244,806.0
360.3905,910.0
360.4565,823.0
360.5225,904.0
360.5885,867.0
360.6546,945.0
360.7206,809.0
360.7866,897.0
360.8526,796.0
360.9185,857.0
360.9846,838.0
361.0506,900.0
361.1165,760.0
361.1825,908.0
361.2485,800.0
361.3145,891.0
361.3805,832.0
361.4465,892.0
361.5124,816.0
361.5784,856.0
361.6443,823.0
361.7103,916.0
361.7762,802.0
361.8422,936.0
361.9082,802.0
361.9741,869.0
362.04,806.0
362.106,933.0
362.1719,826.0
362.2379,901.0
362.3038,834.0
362.3697,899.0
362.4356,812.0
362.5015,927.0
362.5675,838.0
362.6334,921.0
362.6993,843.0
362.7652,900.0
362.8311,795.0
362.8969,927.0
362.9629,812.0
363.0287,919.0
363.0947,840.0
363.1605,935.0
363.2264,817.0
363.2923,924.0
363.3582,837.0
363.424,840.0
363.4899,813.0
363.5557,888.0
363.6216,796.0
363.6874,900.0
363.7533,820.0
363.8191,898.0
363.885,794.0
363.9508,822.0
364.0167,766.0
364.0825,902.0
364.1483,811.0
364.2142,929.0
364.28,789.0
364.3458,911.0
364.4116,799.0
364.4774,863.0
364.5432,800.0
364.609,860.0
364.6748,825.0
364.7406,899.0
364.8065,789.0
364.8722,914.0
364.938,834.0
365.0038,890.0
365.0696,827.0
365.1354,934.0
365.2011,803.0
365.2669,889.0
365.3326,813.0
365.3984,893.0
365.4642,795.0
365.5299,855.0
365.5957,802.0
365.6614,892.0
365.7272,796.0
365.7929,943.0
365.8587,797.0
365.9244,921.0
365.9902,796.0
366.0559,892.0
366.1216,829.0
366.1873,912.0
366.253,818.0
366.3188,908.0
366.3845,830.0
366.4502,892.0
366.5159,818.0
366.5816,919.0
366.6473,806.0
366.713,849.0
366.7787,772.0
366.8444,909.0
366.91,797.0
366.9757,885.0
367.0414,804.0
367.1071,892.0
367.1727,812.0
367.2384,894.0
367.3041,810.0
367.3697,882.0
367.4354,788.0
367.501,910.0
367.5667,763.0
367.6323,871.0
367.698,785.0
367.7636,870.0
367.8292,805.0
367.8948,877.0
367.9605,741.0
368.0261,838.0
368.0918,781.0
368.1573,892.0
368.223,752.0
368.2885,872.0
368.3542,767.0
368.4198,838.0
368.4854,778.0
368.551,850.0
368.6165,750.0
368.6821,853.0
368.7477,789.0
368.8133,897.0
368.8789,753.0
368.9445,891.0
369.01,758.0
369.0756,880.0
369.1411,828.0
369.2067,874.0
369.2723,737.0
369.3379,867.0
369.4034,792.0
369.4689,848.0
369.5345,771.0
369.6,850.0
369.6656,749.0
369.7311,826.0
369.7966,756.0
369.8622,849.0
369.9277,765.0
369.9932,866.0
370.0587,787.0
370.1242,848.0
370.1897,784.0
370.2552,852.0
370.3207,743.0
370.3862,837.0
370.4517,800.0
370.5172,858.0
370.5827,760.0
370.6482,859.0
370.7136,774.0
370.7791,868.0
370.8446,805.0
370.9101,886.0
370.9756,735.0
371.041,857.0
371.1064,778.0
371.1719,882.0
371.2373,789.0
371.3028,871.0
371.3683,756.0
371.4337,885.0
371.4991,789.0
371.5646,898.0
371.63,781.0
371.6954,832.0
371.7608,772.0
371.8263,882.0
371.8917,803.0
371.9571,866.0
372.0225,762.0
372.0879,892.0
372.1533,775.0
372.2187,899.0
372.2841,801.0
372.3495,891.0
372.4149,820.0
372.4803,903.0
372.5457,779.0
372.611,882.0
372.6764,787.0
372.7418,950.0
372.8071,825.0
372.8725,911.0
372.9379,833.0
373.0032,897.0
373.0686,835.0
373.1339,894.0
373.1992,769.0
373.2646,912.0
373.3299,768.0
373.3953,929.0
373.4606,835.0
373.5259,900.0
373.5912,818.0
373.6566,906.0
373.7219,790.0
373.7872,867.0
373.8525,844.0
373.9178,877.0
373.9831,835.0
374.0484,917.0
374.1137,815.0
374.179,926.0
374.2443,812.0
374.3096,927.0
374.3749,816.0
374.4401,915.0
374.5054,823.0
374.5706,924.0
374.636,851.0
374.7012,936.0
374.7665,869.0
374.8318,927.0
374.897,856.0
374.9622,919.0
375.0275,844.0
375.0927,950.0
375.158,885.0
375.2232,890.0
375.2885,837.0
375.3537,884.0
375.4189,815.0
375.4841,942.0
375.5493,865.0
375.6145,950.0
375.6797,882.0
375.745,907.0
375.8101,797.0
375.8754,940.0
375.9406,875.0
376.0057,951.0
376.071,851.0
376.1361,960.0
376.2013,874.0
376.2665,943.0
376.3317,847.0
376.3969,905.0
376.462,852.0
376.5272,917.0
376.5923,897.0
376.6575,961.0
376.7226,880.0
376.7878,958.0
376.8529,834.0
376.9181,968.0
376.9832,902.0
377.0483,922.0
377.1135,883.0
377.1786,933.0
377.2437,856.0
377.3089,949.0
377.374,939.0
377.4391,965.0
377.5042,896.0
377.5693,920.0
377.6344,886.0
377.6995,955.0
377.7646,904.0
377.8297,988.0
377.8948,872.0
377.9599,981.0
378.025,903.0
378.09,978.0
378.1551,918.0
378.2202,996.0
378.2852,920.0
378.3503,991.0
378.4154,907.0
378.4804,991.0
378.5455,940.0
378.6105,984.0
378.6755,977.0
378.7406,1009.0
378.8057,997.0
378.8707,1014.0
378.9357,938.0
379.0008,1060.0
379.0658,960.0
379.1308,1076.0
379.1958,991.0
379.2609,1045.0
379.3259,968.0
379.3908,1130.0
379.4558,1024.0
379.5208,1105.0
379.5858,996.0
379.6509,1072.0
379.7159,1033.0
379.7808,1086.0
379.8458,1048.0
379.9108,1132.0
379.9758,1000.0
380.0407,1136.0
380.1057,1041.0
380.1707,1134.0
380.2356,1134.0
380.3006,1172.0
380.3655,1108.0
380.4305,1234.0
380.4955,1093.0
380.5604,1161.0
380.6253,1108.0
380.6902,1258.0
380.7552,1143.0
380.8201,1194.0
380.885,1170.0
380.95,1174.0
381.0149,1161.0
381.0798,1243.0
381.1447,1167.0
381.2096,1289.0
381.2745,1159.0
381.3394,1238.0
381.4043,1229.0
381.4692,1275.0
381.5341,1234.0
381.5989,1273.0
381.6638,1241.0
381.7287,1346.0
381.7936,1137.0
381.8585,1419.0
381.9233,1314.0
381.9882,1326.0
382.053,1305.0
382.1179,1360.0
382.1828,1357.0
382.2476,1377.0
382.3124,1287.0
382.3773,1430.0
382.4421,1392.0
382.507,1442.0
382.5718,1378.0
382.6366,1403.0
382.7014,1315.0
382.7663,1398.0
382.8311,1323.0
382.8959,1439.0
382.9607,1355.0
383.0255,1391.0
383.0903,1365.0
383.1551,1495.0
383.2199,1403.0
383.2847,1401.0
383.3495,1359.0
383.4143,1484.0
383.479,1333.0
383.5438,1449.0
383.6086,1312.0
383.6734,1471.0
383.7381,1424.0
383.8029,1484.0
383.8676,1438.0
383.9324,1494.0
383.9972,1467.0
384.0619,1552.0
384.1266,1434.0
384.1914,1555.0
384.2562,1455.0
384.3209,1531.0
384.3856,1458.0
384.4503,1715.0
384.515,1617.0
384.5797,1771.0
384.6445,1683.0
384.7092,1759.0
384.7739,1771.0
384.8386,1908.0
384.9033,1923.0
384.968,2001.0
385.0327,1907.0
385.0974,1917.0
385.162,1794.0
385.2267,1891.0
385.2914,1906.0
385.3561,1989.0
385.4208,1816.0
385.4854,1761.0
385.5501,1671.0
385.6147,1823.0
385.6794,1752.0
385.7441,1838.0
385.8087,1874.0
385.8734,2011.0
385.938,2005.0
386.0027,2178.0
386.0673,2243.0
386.1319,2025.0
386.1966,1735.0
386.2612,1720.0
386.3258,1579.0
386.3904,1669.0
386.455,1612.0
386.5196,1753.0
386.5843,1840.0
386.6489,1959.0
386.7135,2048.0
386.778,2212.0
386.8426,2228.0
386.9072,2452.0
386.9718,2517.0
387.0364,2612.0
387.101,2254.0
387.1655,1802.0
387.2301,1470.0
387.2946,1468.0
387.3593,1352.0
387.4238,1435.0
387.4884,1451.0
387.5529,1555.0
387.6175,1538.0
387.682,1756.0
387.7466,1905.0
387.8111,2033.0
387.8756,2107.0
387.9402,2461.0
388.0047,2598.0
388.0692,2796.0
388.1337,2918.0
388.1982,3163.0
388.2628,2780.0
388.3272,2063.0
388.3918,1338.0
388.4563,1175.0
388.5208,949.0
388.5852,976.0
388.6497,837.0
388.7142,909.0
388.7787,837.0
388.8432,906.0
388.9077,848.0
388.9721,904.0
389.0366,810.0
389.1011,948.0
389.1655,821.0
389.23,916.0
389.2944,840.0
389.3589,943.0
389.4233,820.0
389.4878,924.0
389.5522,824.0
389.6167,938.0
389.6811,827.0
389.7455,922.0
389.8099,854.0
389.8744,912.0
389.9388,893.0
390.0032,929.0
390.0676,865.0
390.132,923.0
390.1964,834.0
390.2608,900.0
390.3252,818.0
390.3896,910.0
390.454,831.0
390.5184,943.0
390.5827,810.0
390.6471,921.0
390.7115,887.0
390.7759,933.0
390.8402,831.0
390.9046,955.0
390.9689,864.0
391.0333,917.0
391.0977,860.0
391.162,937.0
391.2264,827.0
391.2907,940.0
391.355,868.0
391.4193,928.0
391.4837,854.0
391.548,933.0
391.6123,880.0
391.6767,914.0
391.741,790.0
391.8053,971.0
391.8696,804.0
391.9339,934.0
391.9982,871.0
392.0625,1017.0
392.1268,875.0
392.1911,928.0
392.2553,825.0
392.3196,919.0
392.3839,866.0
392.4482,917.0
392.5125,888.0
392.5767,958.0
392.641,849.0
392.7053,915.0
392.7695,834.0
392.8338,1012.0
392.898,941.0
392.9622,950.0
393.0265,903.0
393.0908,983.0
393.155,912.0
393.2192,1016.0
393.2834,973.0
393.3477,1043.0
393.4118,927.0
393.476,990.0
393.5403,826.0
393.6045,984.0
393.6687,855.0
393.7329,971.0
393.7971,833.0
393.8613,935.0
393.9255,840.0
393.9897,919.0
394.0539,867.0
394.118,928.0
394.1822,847.0
394.2464,958.0
394.3105,845.0
394.3747,923.0
394.4389,876.0
394.503,961.0
394.5672,837.0
394.6313,960.0
394.6954,865.0
394.7596,940.0
394.8238,852.0
394.8879,904.0
394.952,830.0
395.0161,904.0
395.0803,822.0
395.1444,946.0
395.2085,850.0
395.2726,883.0
395.3367,888.0
395.4008,937.0
395.4649,847.0
395.529,867.0
395.5931,835.0
395.6572,906.0
395.7213,826.0
395.7854,915.0
395.8495,845.0
395.9135,879.0
395.9776,845.0
396.0417,871.0
396.1057,839.0
396.1698,866.0
396.2339,799.0
396.2979,918.0
396.362,805.0
396.426,895.0
396.4901,809.0
396.5541,903.0
396.6181,853.0
396.6821,930.0
396.7462,913.0
396.8102,936.0
396.8743,815.0
396.9383,908.0
397.0023,817.0
397.0662,858.0
397.1302,806.0
397.1943,843.0
397.2583,812.0
397.3223,882.0
397.3862,849.0
397.4502,917.0
397.5142,823.0
397.5782,860.0
397.6422,795.0
397.7061,838.0
397.7701,796.0
397.8341,919.0
397.898,784.0
397.962,977.0
398.0259,805.0
398.0899,872.0
398.1538,813.0
398.2178,902.0
398.2817,802.0
398.3456,910.0
398.4096,762.0
398.4735,890.0
398.5374,857.0
398.6013,921.0
398.6653,821.0
398.7292,883.0
398.7931,793.0
398.857,910.0
398.9209,810.0
398.9848,910.0
399.0487,789.0
399.1125,886.0
399.1765,871.0
399.2404,915.0
399.3042,845.0
399.3681,958.0
399.432,805.0
399.4958,935.0
399.5597,815.0
399.6236,940.0
399.6875,857.0
399.7513,920.0
399.8152,867.0
399.879,963.0
399.9428,844.0
400.0067,920.0
400.0705,800.0
400.1343,921.0
400.1982,863.0
400.262,936.0
400.3258,834.0
400.3896,892.0
400.4534,832.0
400.5172,903.0
400.581,822.0
400.6448,921.0
400.7086,852.0
400.7724,910.0
400.8362,857.0
400.9,937.0
400.9638,814.0
401.0276,946.0
401.0913,901.0
401.1551,924.0
401.2189,856.0
401.2826,961.0
401.3464,847.0
401.4102,936.0
401.4739,868.0
401.5376,978.0
401.6014,884.0
401.6651,931.0
401.7289,860.0
401.7926,944.0
401.8564,839.0
401.92,966.0
401.9838,853.0
402.0475,954.0
402.1112,868.0
402.175,931.0
402.2386,811.0
402.3023,930.0
402.366,843.0
402.4297,976.0
402.4934,915.0
402.5571,957.0
402.6208,917.0
402.6845,959.0
402.7482,832.0
402.8118,935.0
402.8755,882.0
402.9392,970.0
403.0028,859.0
403.0665,912.0
403.1301,905.0
403.1938,923.0
403.2574,859.0
403.3211,985.0
403.3847,846.0
403.4484,946.0
403.512,849.0
403.5756,949.0
403.6393,922.0
403.7029,937.0
403.7665,875.0
403.8301,952.0
403.8937,870.0
403.9573,941.0
404.0209,810.0
404.0845,983.0
404.1481,854.0
404.2117,961.0
404.2753,906.0
404.3389,953.0
404.4024,863.0
404.466,949.0
404.5296,844.0
404.5932,951.0
404.6567,888.0
404.7203,955.0
404.7838,894.0
404.8474,982.0
404.9109,831.0
404.9745,932.0
405.0381,843.0
405.1016,1003.0
405.1651,841.0
405.2286,989.0
405.2922,852.0
405.3557,937.0
405.4193,853.0
405.4828,926.0
405.5462,888.0
405.6097,960.0
405.6733,834.0
405.7368,952.0
405.8003,845.0
405.8638,928.0
405.9272,846.0
405.9907,935.0
406.0542,890.0
406.1177,948.0
406.1812,902.0
406.2446,973.0
406.3081,871.0
406.3716,957.0
406.435,842.0
406.4985,923.0
406.562,858.0
406.6254,953.0
406.6888,884.0
406.7523,963.0
406.8157,855.0
406.8791,949.0
406.9426,866.0
407.006,954.0
407.0694,883.0
407.1328,987.0
407.1962,858.0
407.2597,945.0
407.3231,885.0
407.3865,1037.0
407.4499,833.0
407.5133,969.0
407.5767,902.0
407.64,912.0
407.7034,884.0
407.7668,968.0
407.8302,944.0
407.8936,1003.0
407.9569,924.0
408.0203,1004.0
408.0836,940.0
408.147,1002.0
408.2104,925.0
408.2737,1014.0
408.3371,942.0
408.4004,1010.0
408.4637,925.0
408.5271,1026.0
408.5905,935.0
408.6537,993.0
408.7171,873.0
408.7804,1004.0
408.8437,915.0
408.907,991.0
408.9703,912.0
409.0336,962.0
409.0969,918.0
409.1602,1009.0
409.2235,959.0
409.2868,984.0
409.3501,935.0
409.4134,1027.0
409.4767,916.0
409.5399,1033.0
409.6032,946.0
409.6665,1001.0
409.7297,915.0
409.793,968.0
409.8563,956.0
409.9195,955.0
409.9827,910.0
410.046,967.0
410.1092,932.0
410.1725,992.0
410.2357,981.0
410.299,985.0
410.3622,979.0
410.4254,1018.0
410.4886,906.0
410.5518,986.0
410.615,942.0
410.6782,997.0
410.7414,929.0
410.8046,999.0
410.8678,915.0
410.931,1009.0
410.9942,910.0
411.0574,1022.0
411.1205,929.0
411.1837,1001.0
411.2469,930.0
411.3101,955.0
411.3733,869.0
411.4364,948.0
411.4995,912.0
411.5627,965.0
411.6259,881.0
411.689,994.0
411.7521,904.0
411.8153,988.0
411.8784,960.0
411.9415,982.0
412.0046,887.0
412.0678,1004.0
412.1309,872.0
412.194,998.0
412.2571,885.0
412.3203,979.0
412.3833,890.0
412.4464,998.0
412.5096,879.0
412.5727,960.0
412.6357,919.0
412.6988,993.0
412.7619,879.0
412.825,985.0
412.8881,844.0
412.9511,971.0
413.0142,866.0
413.0772,953.0
413.1403,926.0
413.2033,998.0
413.2664,909.0
413.3294,977.0
413.3925,892.0
413.4555,999.0
413.5186,885.0
413.5816,946.0
413.6446,922.0
413.7076,928.0
413.7707,883.0
413.8337,1020.0
413.8967,919.0
413.9597,997.0
414.0227,902.0
414.0857,1017.0
414.1487,880.0
414.2117,949.0
414.2747,918.0
414.3376,1011.0
414.4006,896.0
414.4636,1034.0
414.5266,898.0
414.5896,975.0
414.6525,959.0
414.7155,1068.0
414.7784,977.0
414.8414,1069.0
414.9044,1031.0
414.9673,1113.0
415.0303,1014.0
415.0932,1090.0
415.1561,1058.0
415.2191,1057.0
415.282,924.0
415.3449,1069.0
415.4079,941.0
415.4708,1041.0
415.5336,986.0
415.5966,1088.0
415.6595,1004.0
415.7224,1100.0
415.7853,950.0
415.8482,1039.0
415.9111,926.0
415.9739,996.0
416.0368,954.0
416.0997,1057.0
416.1626,997.0
416.2255,1017.0
416.2883,1016.0
416.3512,1019.0
416.414,1016.0
416.4769,1086.0
416.5397,980.0
416.6026,1096.0
416.6654,1013.0
416.7283,1080.0
416.7911,967.0
416.8539,1002.0
416.9167,976.0
416.9796,1042.0
417.0424,994.0
417.1052,993.0
417.168,973.0
417.2308,992.0
417.2936,941.0
417.3564,1045.0
417.4193,934.0
417.4821,1012.0
417.5448,966.0
417.6076,1064.0
417.6704,1006.0
417.7332,1109.0
417.796,1050.0
417.8587,1153.0
417.9215,1056.0
417.9842,1131.0
418.047,1020.0
418.1098,1031.0
418.1725,960.0
418.2353,964.0
418.298,887.0
418.3607,970.0
418.4235,859.0
418.4862,1030.0
418.549,940.0
418.6117,969.0
418.6744,907.0
418.7371,975.0
418.7998,889.0
418.8625,1010.0
418.9252,920.0
418.9879,937.0
419.0507,905.0
419.1133,1004.0
419.176,909.0
419.2387,1112.0
419.3014,974.0
419.3641,1090.0
419.4268,1078.0
419.4894,1144.0
419.5521,1108.0
419.6147,1179.0
419.6774,1035.0
419.7401,1029.0
419.8027,920.0
419.8654,942.0
419.928,869.0
419.9906,913.0
420.0533,874.0
420.1159,932.0
420.1785,875.0
420.2411,958.0
420.3038,836.0
420.3664,959.0
420.429,832.0
420.4916,963.0
420.5542,859.0
420.6168,906.0
420.6794,841.0
420.742,892.0
420.8046,869.0
420.8672,957.0
420.9297,873.0
420.9923,1026.0
421.0549,908.0
421.1175,1026.0
421.18,896.0
421.2426,1010.0
421.3052,959.0
421.3677,1010.0
421.4303,1007.0
421.4928,1070.0
421.5554,949.0
421.6179,935.0
421.6804,859.0
421.743,827.0
421.8055,825.0
421.868,936.0
421.9305,783.0
421.993,837.0
422.0556,809.0
422.1181,812.0
422.1806,748.0
422.2431,879.0
422.3055,786.0
422.368,876.0
422.4305,802.0
422.493,880.0
422.5555,837.0
422.618,929.0
422.6805,802.0
422.7429,929.0
422.8054,886.0
422.8679,866.0
422.9303,828.0
422.9928,935.0
423.0552,810.0
423.1177,901.0
423.1801,805.0
423.2425,880.0
423.305,815.0
423.3674,891.0
423.4298,842.0
423.4922,876.0
423.5547,810.0
423.617,893.0
423.6795,757.0
423.7419,955.0
423.8043,810.0
423.8667,901.0
423.9291,838.0
423.9915,920.0
424.0538,829.0
424.1163,899.0
424.1786,808.0
424.241,911.0
424.3034,758.0
424.3658,918.0
424.4281,843.0
424.4905,914.0
424.5529,849.0
424.6152,929.0
424.6775,809.0
424.7399,981.0
424.8022,869.0
424.8646,952.0
424.9269,890.0
424.9892,908.0
425.0515,902.0
425.1139,934.0
425.1762,872.0
425.2385,951.0
425.3008,866.0
425.3631,937.0
425.4254,891.0
425.4877,966.0
425.55,867.0
425.6123,921.0
425.6746,890.0
425.7369,969.0
425.7992,891.0
425.8614,903.0
425.9237,908.0
425.9859,949.0
426.0482,920.0
426.1105,947.0
426.1727,843.0
426.235,926.0
426.2972,872.0
426.3595,946.0
426.4217,841.0
426.4839,975.0
426.5462,891.0
426.6084,946.0
426.6706,883.0
426.7328,1002.0
426.795,907.0
426.8573,947.0
426.9195,885.0
426.9817,925.0
427.0439,891.0
427.1061,933.0
427.1683,829.0
427.2305,950.0
427.2927,830.0
427.3549,901.0
427.417,800.0
427.4792,932.0
427.5413,881.0
427.6035,929.0
427.6657,856.0
427.7278,930.0
427.79,836.0
427.8521,968.0
427.9142,862.0
427.9764,900.0
428.0386,823.0
428.1007,962.0
428.1628,914.0
428.2249,951.0
428.287,884.0
428.3492,957.0
428.4113,795.0
428.4734,947.0
428.5355,831.0
428.5976,938.0
428.6597,860.0
428.7218,915.0
428.7839,841.0
428.846,957.0
428.9081,819.0
428.9702,898.0
429.0322,831.0
429.0943,924.0
429.1563,854.0
429.2184,883.0
429.2805,839.0
429.3425,919.0
429.4046,824.0
429.4666,875.0
429.5287,837.0
429.5908,895.0
429.6528,805.0
429.7148,920.0
429.7768,779.0
429.8388,848.0
429.9008,833.0
429.9629,918.0
430.0249,808.0
430.0869,907.0
430.1489,788.0
430.2109,906.0
430.2729,783.0
430.3349,880.0
430.3969,793.0
430.4589,848.0
430.5208,799.0
430.5828,891.0
430.6448,744.0
430.7068,898.0
430.7688,788.0
430.8307,879.0
430.8926,801.0
430.9546,888.0
431.0165,821.0
431.0785,854.0
431.1404,775.0
431.2024,858.0
431.2643,762.0
431.3262,902.0
431.3881,835.0
431.4501,857.0
431.512,837.0
431.5739,913.0
431.6358,807.0
431.6977,867.0
431.7596,768.0
431.8215,864.0
431.8834,792.0
431.9453,877.0
432.0072,819.0
432.0691,854.0
432.131,764.0
432.1928,884.0
432.2547,732.0
432.3165,839.0
432.3784,753.0
432.4403,836.0
432.5021,792.0
432.564,864.0
432.6258,763.0
432.6876,806.0
432.7495,770.0
432.8113,860.0
432.8732,772.0
432.935,845.0
432.9968,745.0
433.0586,849.0
433.1204,798.0
433.1823,920.0
433.2441,784.0
433.3059,842.0
433.3677,800.0
433.4295,837.0
433.4912,826.0
433.5531,836.0
433.6148,809.0
433.6766,852.0
433.7384,786.0
433.8001,863.0
433.8619,772.0
433.9237,870.0
433.9854,784.0
434.0472,853.0
434.1089,813.0
434.1707,840.0
434.2324,821.0
434.2942,880.0
434.3559,794.0
434.4177,882.0
434.4794,800.0
434.5411,878.0
434.6028,806.0
434.6645,839.0
434.7263,823.0
434.788,858.0
434.8497,827.0
434.9113,919.0
434.973,807.0
435.0347,901.0
435.0965,777.0
435.1581,893.0
435.2198,799.0
435.2815,863.0
435.3431,788.0
435.4048,866.0
435.4665,816.0
435.5282,899.0
435.5898,779.0
435.6515,882.0
435.7131,845.0
435.7747,912.0
435.8363,831.0
435.898,919.0
435.9597,791.0
436.0213,904.0
436.0829,854.0
436.1445,951.0
436.2061,919.0
436.2678,951.0
436.3294,950.0
436.391,953.0
436.4525,873.0
436.5141,861.0
436.5757,849.0
436.6373,897.0
436.6989,782.0
436.7605,942.0
436.8221,796.0
436.8836,864.0
436.9452,862.0
437.0067,905.0
437.0684,869.0
437.1299,884.0
437.1914,782.0
437.253,913.0
437.3145,760.0
437.3761,856.0
437.4376,762.0
437.4992,855.0
437.5607,828.0
437.6222,870.0
437.6837,778.0
437.7452,885.0
437.8067,809.0
437.8683,856.0
437.9298,859.0
437.9913,903.0
438.0528,792.0
438.1143,900.0
438.1757,790.0
438.2372,861.0
438.2987,827.0
438.3602,834.0
438.4217,802.0
438.4831,865.0
438.5446,816.0
438.6061,851.0
438.6675,791.0
438.729,833.0
438.7904,780.0
438.8519,860.0
438.9133,807.0
438.9747,823.0
439.0362,782.0
439.0976,866.0
439.159,756.0
439.2204,845.0
439.2819,745.0
439.3433,853.0
439.4047,775.0
439.4661,876.0
439.5275,774.0
439.5889,850.0
439.6503,764.0
439.7116,907.0
439.7731,808.0
439.8345,881.0
439.8958,721.0
439.9572,874.0
440.0186,793.0
440.0799,846.0
440.1413,804.0
440.2027,832.0
440.264,781.0
440.3253,864.0
440.3867,769.0
440.448,898.0
440.5093,808.0
440.5707,896.0
440.632,772.0
440.6934,854.0
440.7546,797.0
440.816,906.0
440.8773,788.0
440.9386,890.0
440.9999,799.0
441.0612,854.0
441.1225,809.0
441.1838,842.0
441.2451,789.0
441.3063,861.0
441.3677,819.0
441.429,868.0
441.4902,777.0
441.5515,894.0
441.6127,784.0
441.674,847.0
441.7353,818.0
441.7965,832.0
441.8578,787.0
441.919,838.0
441.9802,773.0
442.0414,921.0
442.1027,786.0
442.164,873.0
442.2252,785.0
442.2864,888.0
442.3476,786.0
442.4088,881.0
442.47,808.0
442.5312,866.0
442.5924,788.0
442.6536,867.0
442.7148,814.0
442.776,894.0
442.8372,795.0
442.8984,842.0
442.9596,759.0
443.0207,905.0
443.0819,779.0
443.143,827.0
443.2042,795.0
443.2653,875.0
443.3265,786.0
443.3877,885.0
443.4488,807.0
443.5099,883.0
443.5711,779.0
443.6322,873.0
443.6934,780.0
443.7545,895.0
443.8156,795.0
443.8767,855.0
443.9378,810.0
443.9989,888.0
444.0601,791.0
444.1212,905.0
444.1822,803.0
444.2433,895.0
444.3044,818.0
444.3654,857.0
444.4265,798.0
444.4877,887.0
444.5487,813.0
444.6098,899.0
444.6708,874.0
444.7319,901.0
444.7929,827.0
444.854,846.0
444.915,809.0
444.9761,837.0
445.0371,740.0
445.0981,863.0
445.1592,797.0
445.2203,900.0
445.2812,778.0
445.3423,912.0
445.4033,783.0
445.4643,912.0
445.5253,824.0
445.5862,935.0
445.6473,760.0
445.7083,857.0
445.7693,834.0
445.8303,886.0
445.8912,819.0
445.9522,850.0
446.0132,810.0
446.0742,831.0
446.1352,811.0
446.1961,855.0
446.257,795.0
446.318,861.0
446.379,809.0
446.4399,845.0
446.5009,803.0
446.5618,875.0
446.6227,774.0
446.6836,862.0
446.7446,768.0
446.8055,841.0
446.8664,787.0
446.9273,859.0
446.9883,819.0
447.0491,842.0
447.11,762.0
447.171,861.0
447.2319,749.0
447.2927,847.0
447.3536,803.0
447.4145,851.0
447.4753,746.0
447.5363,826.0
447.5971,735.0
447.658,861.0
447.7188,761.0
447.7797,837.0
447.8405,753.0
447.9014,801.0
447.9623,756.0
448.0231,806.0
448.0839,756.0
448.1447,816.0
448.2056,734.0
448.2664,828.0
448.3272,761.0
448.3881,786.0
448.4489,742.0
448.5096,833.0
448.5705,736.0
448.6312,786.0
448.6921,777.0
448.7529,805.0
448.8137,698.0
448.8744,846.0
448.9352,775.0
448.9959,880.0
449.0567,760.0
449.1175,825.0
449.1783,731.0
449.239,867.0
449.2998,762.0
449.3605,824.0
449.4213,718.0
449.4821,807.0
449.5428,723.0
449.6035,827.0
449.6642,746.0
449.725,791.0
449.7857,749.0
449.8464,867.0
449.9071,725.0
449.9679,855.0
450.0285,703.0
450.0892,842.0
450.1499,743.0
450.2106,772.0
450.2714,753.0
450.332,805.0
450.3927,673.0
450.4534,833.0
450.514,720.0
450.5747,804.0
450.6354,764.0
450.696,776.0
450.7567,718.0
450.8174,782.0
450.878,728.0
450.9386,814.0
450.9993,710.0
451.0599,811.0
451.1206,713.0
451.1812,794.0
451.2418,733.0
451.3024,769.0
451.363,703.0
451.4236,804.0
451.4843,719.0
451.5449,844.0
451.6054,752.0
451.666,841.0
451.7267,734.0
451.7873,819.0
451.8478,722.0
451.9084,822.0
451.969,694.0
452.0295,823.0
452.0901,757.0
452.1507,781.0
452.2113,699.0
452.2718,787.0
452.3324,723.0
452.3929,784.0
452.4534,744.0
452.5139,815.0
452.5745,685.0
452.635,787.0
452.6956,726.0
452.7561,774.0
452.8166,753.0
452.8771,780.0
452.9377,655.0
452.9981,801.0
453.0586,705.0
453.1191,852.0
453.1796,752.0
453.2401,815.0
453.3006,742.0
453.3611,770.0
453.4216,732.0
453.4821,780.0
453.5425,687.0
453.6029,837.0
453.6634,721.0
453.7239,804.0
453.7844,756.0
453.8448,819.0
453.9052,714.0
453.9656,816.0
454.0261,734.0
454.0866,844.0
454.147,713.0
454.2074,849.0
454.2678,738.0
454.3282,795.0
454.3886,762.0
454.449,812.0
454.5095,770.0
454.5699,813.0
454.6302,765.0
454.6906,825.0
454.751,736.0
454.8114,857.0
454.8718,750.0
454.9322,850.0
454.9925,746.0
455.0529,788.0
455.1133,754.0
455.1736,801.0
455.234,745.0
455.2943,819.0
455.3547,762.0
455.415,881.0
455.4753,782.0
455.5357,800.0
455.5959,741.0
455.6563,849.0
455.7167,736.0
455.777,873.0
455.8373,742.0
455.8976,816.0
455.9579,786.0
456.0182,836.0
456.0785,758.0
456.1388,831.0
456.1991,768.0
456.2593,813.0
456.3196,732.0
456.3799,861.0
456.4402,787.0
456.5005,836.0
456.5607,738.0
456.621,822.0
456.6812,764.0
456.7414,839.0
456.8018,826.0
456.862,821.0
456.9222,723.0
456.9825,848.0
457.0426,759.0
457.1028,803.0
457.1631,748.0
457.2234,875.0
457.2835,756.0
457.3438,833.0
457.404,717.0
457.4641,814.0
457.5244,783.0
457.5846,848.0
457.6447,764.0
457.7049,874.0
457.7651,769.0
457.8253,851.0
457.8854,724.0
457.9456,814.0
458.0058,715.0
458.0659,806.0
458.1261,735.0
458.1862,838.0
458.2464,763.0
458.3066,901.0
458.3667,801.0
458.4268,855.0
458.4869,775.0
458.5471,683.0
458.6072,612.0
458.6674,694.0
458.7274,605.0
458.7876,701.0
458.8477,633.0
458.9077,670.0
458.9679,617.0
459.0279,686.0
459.0881,642.0
459.1481,688.0
459.2082,621.0
459.2683,708.0
459.3283,643.0
459.3884,725.0
459.4485,646.0
459.5086,694.0
459.5686,622.0
459.6287,685.0
459.6887,596.0
459.7487,719.0
459.8088,673.0
459.8688,649.0
459.9289,620.0
459.9889,738.0
460.0489,657.0
460.1089,746.0
460.1689,620.0
460.229,692.0
460.289,603.0
