Laser settings:
	Diode frequency:	5 Hz
	Pulses fired:		105
	Q-Switch blanking:	5
	Q-Switch delay:		201 μs
	Q-Switch presync:	1 μs
Spectrometer settings:
	Integration time:	0.0090 ms
	Integration delay:	0.000 ns
	Averaging:		1
	Trigger mode:		External
	Dynamic Dark Correction:		Disabled


wavelength,intensity
184.9409,656.0
185.0142,606.0
185.0875,713.0
185.1608,635.0
185.2341,681.0
185.3074,642.0
185.3807,727.0
185.454,594.0
185.5273,709.0
185.6006,636.0
185.6739,651.0
185.7472,637.0
185.8205,675.0
185.8938,632.0
185.9671,730.0
186.0403,593.0
186.1136,666.0
186.1869,643.0
186.2601,730.0
186.3334,621.0
186.4067,704.0
186.4799,593.0
186.5532,709.0
186.6265,607.0
186.6997,692.0
186.773,612.0
186.8462,724.0
186.9195,628.0
186.9928,683.0
187.066,640.0
187.1392,684.0
187.2125,644.0
187.2857,702.0
187.3589,619.0
187.4322,716.0
187.5054,636.0
187.5786,672.0
187.6519,649.0
187.7251,741.0
187.7983,690.0
187.8715,672.0
187.9447,628.0
188.018,720.0
188.0912,636.0
188.1644,715.0
188.2376,632.0
188.3108,722.0
188.384,626.0
188.4572,728.0
188.5304,655.0
188.6036,712.0
188.6768,651.0
188.75,735.0
188.8232,680.0
188.8963,689.0
188.9695,652.0
189.0427,719.0
189.1159,669.0
189.1891,740.0
189.2623,662.0
189.3354,742.0
189.4086,665.0
189.4818,718.0
189.5549,662.0
189.6281,749.0
189.7012,651.0
189.7744,696.0
189.8476,687.0
189.9207,725.0
189.9939,702.0
190.067,719.0
190.1402,666.0
190.2133,745.0
190.2864,652.0
190.3596,767.0
190.4327,687.0
190.5059,741.0
190.579,664.0
190.6521,744.0
190.7253,663.0
190.7984,715.0
190.8715,670.0
190.9446,716.0
191.0177,662.0
191.0908,715.0
191.164,659.0
191.2371,755.0
191.3102,670.0
191.3833,753.0
191.4564,653.0
191.5295,737.0
191.6026,637.0
191.6757,819.0
191.7488,708.0
191.8219,748.0
191.895,696.0
191.968,726.0
192.0411,669.0
192.1142,750.0
192.1873,632.0
192.2604,776.0
192.3334,653.0
192.4065,732.0
192.4796,689.0
192.5527,756.0
192.6257,662.0
192.6988,750.0
192.7718,680.0
192.8449,734.0
192.918,686.0
192.991,773.0
193.064,749.0
193.1371,784.0
193.2101,731.0
193.2832,729.0
193.3562,666.0
193.4292,746.0
193.5023,648.0
193.5753,773.0
193.6484,694.0
193.7214,769.0
193.7944,657.0
193.8674,750.0
193.9405,608.0
194.0135,755.0
194.0865,698.0
194.1595,794.0
194.2325,689.0
194.3055,748.0
194.3785,683.0
194.4515,795.0
194.5246,715.0
194.5975,790.0
194.6705,664.0
194.7435,749.0
194.8165,673.0
194.8895,755.0
194.9625,705.0
195.0355,762.0
195.1085,654.0
195.1815,740.0
195.2544,655.0
195.3274,754.0
195.4004,691.0
195.4734,715.0
195.5463,666.0
195.6193,737.0
195.6923,715.0
195.7652,749.0
195.8382,681.0
195.9111,769.0
195.9841,714.0
196.057,769.0
196.13,752.0
196.2029,742.0
196.2759,656.0
196.3488,741.0
196.4218,688.0
196.4947,752.0
196.5676,723.0
196.6406,772.0
196.7135,670.0
196.7864,814.0
196.8593,678.0
196.9323,767.0
197.0052,708.0
197.0781,787.0
197.151,655.0
197.2239,777.0
197.2969,703.0
197.3697,768.0
197.4427,675.0
197.5156,777.0
197.5885,708.0
197.6614,767.0
197.7343,678.0
197.8072,819.0
197.88,706.0
197.9529,806.0
198.0258,741.0
198.0987,827.0
198.1716,713.0
198.2445,755.0
198.3173,697.0
198.3902,742.0
198.4631,697.0
198.5359,766.0
198.6088,665.0
198.6817,770.0
198.7545,739.0
198.8274,818.0
198.9003,743.0
198.9731,812.0
199.046,737.0
199.1188,765.0
199.1917,727.0
199.2645,819.0
199.3373,704.0
199.4102,728.0
199.483,694.0
199.5559,743.0
199.6287,741.0
199.7015,782.0
199.7744,740.0
199.8472,789.0
199.92,769.0
199.9928,960.0
200.0656,881.0
200.1385,836.0
200.2113,720.0
200.2841,796.0
200.3569,698.0
200.4297,784.0
200.5025,698.0
200.5753,784.0
200.6481,680.0
200.7209,761.0
200.7937,704.0
200.8665,733.0
200.9393,646.0
201.0121,780.0
201.0848,666.0
201.1576,784.0
201.2304,698.0
201.3032,755.0
201.3759,724.0
201.4487,755.0
201.5215,748.0
201.5943,791.0
201.667,715.0
201.7398,798.0
201.8125,687.0
201.8853,778.0
201.958,649.0
202.0308,787.0
202.1035,697.0
202.1763,773.0
202.249,723.0
202.3218,752.0
202.3945,731.0
202.4673,822.0
202.54,816.0
202.6127,839.0
202.6855,764.0
202.7582,769.0
202.8309,697.0
202.9036,790.0
202.9764,687.0
203.0491,766.0
203.1218,700.0
203.1945,792.0
203.2672,727.0
203.3399,821.0
203.4126,775.0
203.4853,858.0
203.558,864.0
203.6307,1035.0
203.7034,1028.0
203.7761,1059.0
203.8488,923.0
203.9215,846.0
203.9942,721.0
204.0669,810.0
204.1395,731.0
204.2122,827.0
204.2849,777.0
204.3576,930.0
204.4302,933.0
204.5029,965.0
204.5756,881.0
204.6482,784.0
204.7209,717.0
204.7935,812.0
204.8662,722.0
204.9389,794.0
205.0115,684.0
205.0842,810.0
205.1568,726.0
205.2294,775.0
205.3021,765.0
205.3747,808.0
205.4474,823.0
205.52,953.0
205.5926,841.0
205.6653,890.0
205.7379,758.0
205.8105,821.0
205.8831,716.0
205.9557,766.0
206.0284,709.0
206.101,783.0
206.1736,716.0
206.2462,782.0
206.3188,747.0
206.3914,774.0
206.464,709.0
206.5366,752.0
206.6092,659.0
206.6818,767.0
206.7544,735.0
206.827,800.0
206.8996,656.0
206.9721,745.0
207.0447,719.0
207.1173,743.0
207.1899,718.0
207.2625,814.0
207.335,696.0
207.4076,771.0
207.4802,725.0
207.5527,771.0
207.6253,691.0
207.6978,792.0
207.7704,709.0
207.843,768.0
207.9155,679.0
207.9881,813.0
208.0606,748.0
208.1331,792.0
208.2057,718.0
208.2782,785.0
208.3508,756.0
208.4233,816.0
208.4958,708.0
208.5684,841.0
208.6409,744.0
208.7134,824.0
208.7859,756.0
208.8584,838.0
208.931,756.0
209.0035,802.0
209.076,728.0
209.1485,808.0
209.221,695.0
209.2935,766.0
209.366,757.0
209.4385,840.0
209.511,684.0
209.5835,851.0
209.656,727.0
209.7285,800.0
209.801,756.0
209.8735,810.0
209.9459,803.0
210.0184,845.0
210.0909,762.0
210.1634,794.0
210.2358,727.0
210.3083,755.0
210.3808,738.0
210.4532,893.0
210.5257,855.0
210.5982,937.0
210.6706,797.0
210.7431,803.0
210.8155,726.0
210.888,777.0
210.9604,750.0
211.0329,824.0
211.1053,793.0
211.1777,933.0
211.2502,1024.0
211.3226,1011.0
211.3951,816.0
211.4675,854.0
211.5399,736.0
211.6123,866.0
211.6847,771.0
211.7572,846.0
211.8296,773.0
211.902,846.0
211.9744,799.0
212.0468,825.0
212.1192,787.0
212.1917,908.0
212.264,975.0
212.3364,1139.0
212.4088,1044.0
212.4812,987.0
212.5536,910.0
212.626,1145.0
212.6984,1007.0
212.7708,924.0
212.8432,815.0
212.9155,897.0
212.9879,758.0
213.0603,849.0
213.1326,804.0
213.205,873.0
213.2774,838.0
213.3498,957.0
213.4221,940.0
213.4945,1178.0
213.5668,1242.0
213.6392,1627.0
213.7115,1402.0
213.7839,1120.0
213.8562,901.0
213.9286,919.0
214.0009,827.0
214.0732,871.0
214.1456,782.0
214.2179,886.0
214.2903,783.0
214.3626,797.0
214.4349,733.0
214.5072,797.0
214.5796,741.0
214.6519,793.0
214.7242,850.0
214.7965,884.0
214.8688,868.0
214.9411,1006.0
215.0134,878.0
215.0857,927.0
215.158,788.0
215.2303,788.0
215.3026,823.0
215.3749,793.0
215.4472,741.0
215.5195,830.0
215.5918,724.0
215.6641,801.0
215.7363,738.0
215.8086,782.0
215.8809,719.0
215.9532,792.0
216.0254,728.0
216.0977,737.0
216.17,719.0
216.2422,819.0
216.3145,752.0
216.3867,826.0
216.459,730.0
216.5313,827.0
216.6035,761.0
216.6758,848.0
216.748,725.0
216.8202,809.0
216.8925,763.0
216.9647,806.0
217.037,726.0
217.1092,790.0
217.1814,738.0
217.2536,847.0
217.3259,747.0
217.3981,813.0
217.4703,745.0
217.5425,881.0
217.6147,821.0
217.687,897.0
217.7592,864.0
217.8314,992.0
217.9035,1046.0
217.9758,1286.0
218.048,1134.0
218.1201,1048.0
218.1924,896.0
218.2645,937.0
218.3367,805.0
218.4089,831.0
218.4811,760.0
218.5533,848.0
218.6255,760.0
218.6976,878.0
218.7698,851.0
218.842,890.0
218.9142,990.0
218.9863,1136.0
219.0585,1129.0
219.1306,1257.0
219.2028,1287.0
219.2749,1539.0
219.3471,1294.0
219.4193,1078.0
219.4914,916.0
219.5636,897.0
219.6357,865.0
219.7078,905.0
219.78,857.0
219.8521,900.0
219.9242,882.0
219.9964,1016.0
220.0685,950.0
220.1406,938.0
220.2128,864.0
220.2849,933.0
220.357,832.0
220.4291,909.0
220.5012,779.0
220.5733,836.0
220.6454,840.0
220.7175,896.0
220.7896,848.0
220.8617,913.0
220.9338,884.0
221.0059,1082.0
221.078,1160.0
221.1501,1112.0
221.2222,920.0
221.2943,942.0
221.3663,827.0
221.4384,934.0
221.5105,876.0
221.5826,926.0
221.6546,917.0
221.7267,1031.0
221.7988,1171.0
221.8708,1328.0
221.9429,1081.0
222.015,978.0
222.087,901.0
222.1591,903.0
222.2311,838.0
222.3032,904.0
222.3752,843.0
222.4473,910.0
222.5193,791.0
222.5913,917.0
222.6634,886.0
222.7354,979.0
222.8074,969.0
222.8795,1153.0
222.9515,1140.0
223.0235,1105.0
223.0955,1033.0
223.1675,974.0
223.2395,928.0
223.3116,924.0
223.3836,838.0
223.4556,926.0
223.5276,813.0
223.5996,898.0
223.6716,786.0
223.7436,845.0
223.8156,823.0
223.8876,914.0
223.9595,811.0
224.0315,915.0
224.1035,928.0
224.1755,1097.0
224.2475,1323.0
224.3195,1535.0
224.3914,1255.0
224.4634,1192.0
224.5354,984.0
224.6073,1239.0
224.6793,1375.0
224.7512,1641.0
224.8232,1370.0
224.8952,1150.0
224.9671,947.0
225.0391,945.0
225.111,862.0
225.1829,919.0
225.2549,867.0
225.3268,839.0
225.3988,826.0
225.4707,907.0
225.5426,825.0
225.6146,895.0
225.6865,833.0
225.7584,845.0
225.8303,843.0
225.9022,832.0
225.9742,829.0
226.0461,868.0
226.118,824.0
226.1899,915.0
226.2618,796.0
226.3337,878.0
226.4056,858.0
226.4775,898.0
226.5494,841.0
226.6213,884.0
226.6932,787.0
226.7651,843.0
226.8369,761.0
226.9088,866.0
226.9807,786.0
227.0526,859.0
227.1245,769.0
227.1963,850.0
227.2682,793.0
227.3401,871.0
227.4119,783.0
227.4838,866.0
227.5556,847.0
227.6275,960.0
227.6993,891.0
227.7712,905.0
227.8431,759.0
227.9149,841.0
227.9867,770.0
228.0586,813.0
228.1304,712.0
228.2023,813.0
228.2741,794.0
228.3459,849.0
228.4177,766.0
228.4896,826.0
228.5614,750.0
228.6332,781.0
228.705,756.0
228.7768,851.0
228.8486,757.0
228.9205,853.0
228.9923,754.0
229.0641,884.0
229.1359,767.0
229.2077,824.0
229.2794,754.0
229.3513,829.0
229.423,828.0
229.4948,905.0
229.5666,812.0
229.6384,865.0
229.7102,742.0
229.782,820.0
229.8537,724.0
229.9255,766.0
229.9973,732.0
230.069,819.0
230.1408,716.0
230.2126,804.0
230.2843,693.0
230.3561,802.0
230.4278,691.0
230.4996,746.0
230.5713,726.0
230.6431,782.0
230.7148,729.0
230.7866,773.0
230.8583,705.0
230.93,773.0
231.0018,739.0
231.0735,784.0
231.1452,686.0
231.2169,806.0
231.2887,700.0
231.3604,815.0
231.4321,746.0
231.5038,759.0
231.5755,751.0
231.6472,804.0
231.7189,785.0
231.7906,783.0
231.8624,693.0
231.9341,821.0
232.0057,720.0
232.0774,788.0
232.1491,703.0
232.2208,782.0
232.2925,716.0
232.3642,808.0
232.4359,712.0
232.5075,863.0
232.5792,749.0
232.6509,814.0
232.7225,736.0
232.7942,810.0
232.8659,715.0
232.9375,802.0
233.0092,735.0
233.0809,820.0
233.1525,739.0
233.2242,813.0
233.2958,741.0
233.3675,791.0
233.4391,750.0
233.5107,783.0
233.5824,720.0
233.654,770.0
233.7256,729.0
233.7973,801.0
233.8689,719.0
233.9405,808.0
234.0121,745.0
234.0838,784.0
234.1554,706.0
234.227,833.0
234.2986,712.0
234.3702,776.0
234.4418,734.0
234.5134,793.0
234.585,746.0
234.6566,796.0
234.7282,690.0
234.7998,805.0
234.8714,706.0
234.943,823.0
235.0146,700.0
235.0862,781.0
235.1577,736.0
235.2293,739.0
235.3009,725.0
235.3725,826.0
235.444,702.0
235.5156,802.0
235.5872,683.0
235.6587,792.0
235.7303,721.0
235.8018,811.0
235.8734,731.0
235.9449,809.0
236.0165,764.0
236.088,814.0
236.1596,773.0
236.2311,833.0
236.3026,768.0
236.3742,840.0
236.4457,745.0
236.5172,766.0
236.5887,758.0
236.6603,792.0
236.7318,800.0
236.8033,864.0
236.8748,779.0
236.9464,913.0
237.0179,938.0
237.0894,980.0
237.1609,798.0
237.2324,837.0
237.3039,764.0
237.3754,823.0
237.4469,768.0
237.5184,835.0
237.5898,764.0
237.6613,826.0
237.7328,779.0
237.8043,846.0
237.8758,785.0
237.9472,846.0
238.0187,723.0
238.0902,865.0
238.1617,777.0
238.2331,834.0
238.3046,781.0
238.376,829.0
238.4475,776.0
238.519,786.0
238.5904,801.0
238.6618,816.0
238.7333,744.0
238.8047,800.0
238.8762,747.0
238.9476,818.0
239.0191,750.0
239.0905,840.0
239.1619,728.0
239.2334,813.0
239.3048,763.0
239.3762,857.0
239.4476,756.0
239.519,874.0
239.5904,754.0
239.6619,871.0
239.7333,744.0
239.8047,834.0
239.8761,747.0
239.9475,899.0
240.0189,761.0
240.0903,872.0
240.1617,743.0
240.233,879.0
240.3044,713.0
240.3758,874.0
240.4472,760.0
240.5186,817.0
240.59,729.0
240.6613,872.0
240.7327,761.0
240.8041,852.0
240.8754,752.0
240.9468,814.0
241.0181,722.0
241.0895,830.0
241.1609,736.0
241.2322,804.0
241.3036,729.0
241.3749,839.0
241.4462,759.0
241.5176,824.0
241.5889,764.0
241.6602,808.0
241.7316,759.0
241.8029,817.0
241.8743,722.0
241.9456,814.0
242.0169,748.0
242.0882,851.0
242.1595,792.0
242.2309,843.0
242.3022,763.0
242.3735,846.0
242.4448,747.0
242.5161,844.0
242.5874,797.0
242.6587,809.0
242.73,717.0
242.8013,817.0
242.8726,748.0
242.9438,836.0
243.0151,716.0
243.0864,854.0
243.1577,760.0
243.229,860.0
243.3002,752.0
243.3715,854.0
243.4428,769.0
243.5141,810.0
243.5853,782.0
243.6566,826.0
243.7278,721.0
243.7991,840.0
243.8703,755.0
243.9416,853.0
244.0128,795.0
244.0841,804.0
244.1553,780.0
244.2266,873.0
244.2978,730.0
244.369,895.0
244.4402,750.0
244.5115,818.0
244.5827,774.0
244.6539,809.0
244.7251,771.0
244.7964,771.0
244.8676,733.0
244.9388,861.0
245.01,778.0
245.0812,837.0
245.1524,771.0
245.2236,832.0
245.2948,792.0
245.366,821.0
245.4372,762.0
245.5084,807.0
245.5796,740.0
245.6507,832.0
245.7219,746.0
245.7931,841.0
245.8643,729.0
245.9355,816.0
246.0066,752.0
246.0778,803.0
246.149,726.0
246.2201,808.0
246.2913,738.0
246.3624,826.0
246.4336,707.0
246.5047,841.0
246.5759,706.0
246.647,811.0
246.7182,713.0
246.7893,833.0
246.8605,774.0
246.9316,881.0
247.0027,729.0
247.0739,820.0
247.145,726.0
247.2161,785.0
247.2872,742.0
247.3584,810.0
247.4295,758.0
247.5006,849.0
247.5717,698.0
247.6428,845.0
247.7139,777.0
247.785,767.0
247.8561,718.0
247.9272,807.0
247.9983,708.0
248.0694,796.0
248.1405,723.0
248.2116,839.0
248.2827,715.0
248.3537,776.0
248.4248,698.0
248.4959,799.0
248.5669,715.0
248.638,829.0
248.7091,716.0
248.7802,831.0
248.8512,765.0
248.9223,867.0
248.9933,784.0
249.0644,796.0
249.1354,747.0
249.2065,828.0
249.2775,707.0
249.3486,838.0
249.4196,744.0
249.4906,817.0
249.5617,732.0
249.6327,845.0
249.7037,675.0
249.7747,844.0
249.8458,732.0
249.9168,836.0
249.9878,726.0
250.0588,843.0
250.1298,768.0
250.2009,784.0
250.2719,768.0
250.3429,807.0
250.4138,719.0
250.4849,808.0
250.5558,744.0
250.6268,802.0
250.6978,723.0
250.7688,807.0
250.8398,744.0
250.9108,838.0
250.9818,743.0
251.0527,845.0
251.1237,737.0
251.1947,802.0
251.2657,757.0
251.3366,859.0
251.4076,782.0
251.4785,812.0
251.5495,737.0
251.6205,836.0
251.6914,759.0
251.7623,833.0
251.8333,768.0
251.9042,820.0
251.9752,760.0
252.0461,887.0
252.1171,720.0
252.188,790.0
252.2589,760.0
252.3298,848.0
252.4008,733.0
252.4717,842.0
252.5426,743.0
252.6135,830.0
252.6844,768.0
252.7553,818.0
252.8262,759.0
252.8971,837.0
252.9681,795.0
253.039,874.0
253.1098,765.0
253.1808,837.0
253.2516,732.0
253.3225,811.0
253.3934,743.0
253.4643,812.0
253.5352,758.0
253.606,832.0
253.6769,739.0
253.7478,805.0
253.8187,780.0
253.8895,807.0
253.9604,708.0
254.0312,813.0
254.1021,708.0
254.173,832.0
254.2438,685.0
254.3147,870.0
254.3855,738.0
254.4563,774.0
254.5272,734.0
254.598,882.0
254.6689,775.0
254.7397,813.0
254.8105,733.0
254.8813,797.0
254.9522,769.0
255.023,835.0
255.0938,726.0
255.1646,836.0
255.2354,728.0
255.3062,868.0
255.3771,695.0
255.4479,839.0
255.5187,774.0
255.5894,846.0
255.6603,780.0
255.731,839.0
255.8018,723.0
255.8726,833.0
255.9434,737.0
256.0142,824.0
256.085,755.0
256.1558,871.0
256.2265,766.0
256.2973,840.0
256.3681,740.0
256.4388,849.0
256.5096,691.0
256.5804,825.0
256.6511,748.0
256.7219,830.0
256.7926,776.0
256.8634,833.0
256.9341,776.0
257.0049,848.0
257.0756,773.0
257.1463,826.0
257.2171,736.0
257.2878,830.0
257.3585,778.0
257.4292,822.0
257.5,721.0
257.5707,820.0
257.6414,729.0
257.7122,797.0
257.7828,753.0
257.8535,820.0
257.9243,724.0
257.995,828.0
258.0657,780.0
258.1364,794.0
258.2071,730.0
258.2777,798.0
258.3484,754.0
258.4191,814.0
258.4898,709.0
258.5605,807.0
258.6312,735.0
258.7018,805.0
258.7725,735.0
258.8432,780.0
258.9139,707.0
258.9845,749.0
259.0552,704.0
259.1259,785.0
259.1965,732.0
259.2672,795.0
259.3378,726.0
259.4085,770.0
259.4791,742.0
259.5497,802.0
259.6204,707.0
259.691,813.0
259.7617,697.0
259.8323,801.0
259.9029,719.0
259.9735,839.0
260.0442,708.0
260.1147,794.0
260.1854,750.0
260.256,791.0
260.3267,695.0
260.3972,820.0
260.4678,761.0
260.5384,809.0
260.6091,711.0
260.6796,845.0
260.7502,714.0
260.8208,800.0
260.8914,672.0
260.962,825.0
261.0326,718.0
261.1032,743.0
261.1737,718.0
261.2444,800.0
261.3149,752.0
261.3854,797.0
261.456,701.0
261.5266,833.0
261.5971,734.0
261.6677,814.0
261.7383,730.0
261.8088,816.0
261.8794,714.0
261.9499,837.0
262.0205,793.0
262.091,817.0
262.1615,732.0
262.2321,811.0
262.3026,804.0
262.3731,800.0
262.4437,734.0
262.5142,828.0
262.5847,789.0
262.6552,812.0
262.7257,708.0
262.7962,821.0
262.8668,748.0
262.9373,760.0
263.0078,734.0
263.0783,810.0
263.1488,748.0
263.2193,788.0
263.2898,736.0
263.3603,865.0
263.4307,747.0
263.5012,852.0
263.5717,758.0
263.6422,812.0
263.7127,770.0
263.7831,809.0
263.8536,746.0
263.9241,855.0
263.9945,746.0
264.065,851.0
264.1354,722.0
264.2059,829.0
264.2764,707.0
264.3468,835.0
264.4173,739.0
264.4877,839.0
264.5581,692.0
264.6286,829.0
264.699,747.0
264.7694,833.0
264.8399,729.0
264.9103,794.0
264.9807,764.0
265.0511,831.0
265.1216,720.0
265.192,832.0
265.2625,693.0
265.3328,764.0
265.4032,709.0
265.4736,806.0
265.5441,748.0
265.6144,822.0
265.6848,714.0
265.7552,788.0
265.8256,695.0
265.896,790.0
265.9664,721.0
266.0368,803.0
266.1071,724.0
266.1775,809.0
266.2479,743.0
266.3183,766.0
266.3886,683.0
266.459,774.0
266.5294,722.0
266.5998,809.0
266.6701,721.0
266.7404,819.0
266.8108,745.0
266.8812,779.0
266.9515,682.0
267.0219,820.0
267.0922,699.0
267.1625,788.0
267.2328,767.0
267.3032,831.0
267.3735,690.0
267.4438,759.0
267.5142,726.0
267.5845,803.0
267.6548,757.0
267.7251,799.0
267.7954,679.0
267.8657,717.0
267.936,697.0
268.0063,782.0
268.0766,715.0
268.1469,785.0
268.2172,704.0
268.2875,758.0
268.3578,723.0
268.4281,797.0
268.4984,718.0
268.5686,770.0
268.6389,707.0
268.7092,761.0
268.7794,712.0
268.8498,771.0
268.92,713.0
268.9902,799.0
269.0605,722.0
269.1308,754.0
269.201,761.0
269.2713,802.0
269.3415,679.0
269.4118,779.0
269.482,741.0
269.5523,782.0
269.6225,689.0
269.6927,799.0
269.7629,717.0
269.8332,782.0
269.9034,693.0
269.9736,778.0
270.0439,699.0
270.114,798.0
270.1843,717.0
270.2545,768.0
270.3247,737.0
270.3949,727.0
270.4651,739.0
270.5353,792.0
270.6055,690.0
270.6757,792.0
270.7459,725.0
270.8161,795.0
270.8863,742.0
270.9564,801.0
271.0266,740.0
271.0968,778.0
271.167,725.0
271.2371,813.0
271.3073,752.0
271.3775,816.0
271.4476,733.0
271.5178,820.0
271.588,770.0
271.6581,800.0
271.7282,744.0
271.7984,804.0
271.8685,720.0
271.9387,789.0
272.0088,760.0
272.0789,810.0
272.1491,774.0
272.2192,848.0
272.2893,798.0
272.3595,846.0
272.4296,765.0
272.4997,843.0
272.5698,716.0
272.64,835.0
272.7101,791.0
272.7802,818.0
272.8503,769.0
272.9204,790.0
272.9904,759.0
273.0605,847.0
273.1306,805.0
273.2007,814.0
273.2708,711.0
273.3409,821.0
273.411,727.0
273.481,802.0
273.5511,739.0
273.6212,857.0
273.6913,804.0
273.7614,847.0
273.8314,775.0
273.9015,827.0
273.9715,770.0
274.0416,826.0
274.1116,737.0
274.1817,809.0
274.2517,783.0
274.3217,885.0
274.3918,797.0
274.4619,874.0
274.5319,766.0
274.602,861.0
274.6719,764.0
274.742,826.0
274.812,819.0
274.882,827.0
274.952,722.0
275.0221,866.0
275.0921,777.0
275.1621,885.0
275.2321,809.0
275.3021,791.0
275.3721,781.0
275.4421,816.0
275.5121,722.0
275.5821,890.0
275.6521,757.0
275.722,840.0
275.792,746.0
275.862,783.0
275.932,727.0
276.002,802.0
276.0719,728.0
276.1418,831.0
276.2119,761.0
276.2818,851.0
276.3517,765.0
276.4218,816.0
276.4917,763.0
276.5616,806.0
276.6316,745.0
276.7015,840.0
276.7715,764.0
276.8414,805.0
276.9113,707.0
276.9813,810.0
277.0512,718.0
277.1211,824.0
277.191,786.0
277.261,829.0
277.3309,779.0
277.4008,817.0
277.4707,784.0
277.5406,831.0
277.6105,744.0
277.6804,799.0
277.7503,736.0
277.8202,816.0
277.8901,745.0
277.96,846.0
278.0299,731.0
278.0998,844.0
278.1697,722.0
278.2396,780.0
278.3094,793.0
278.3793,811.0
278.4492,716.0
278.519,809.0
278.5889,756.0
278.6588,844.0
278.7286,715.0
278.7985,800.0
278.8683,756.0
278.9382,856.0
279.0081,774.0
279.0779,807.0
279.1477,734.0
279.2176,792.0
279.2874,768.0
279.3572,875.0
279.4271,733.0
279.4969,833.0
279.5667,760.0
279.6365,826.0
279.7063,775.0
279.7762,868.0
279.846,750.0
279.9158,838.0
279.9856,755.0
280.0554,795.0
280.1252,828.0
280.195,807.0
280.2648,777.0
280.3346,831.0
280.4044,807.0
280.4742,872.0
280.544,781.0
280.6137,860.0
280.6835,801.0
280.7533,825.0
280.8231,768.0
280.8928,854.0
280.9626,794.0
281.0323,850.0
281.1021,772.0
281.1719,888.0
281.2416,769.0
281.3114,847.0
281.3811,795.0
281.4509,874.0
281.5206,756.0
281.5904,854.0
281.6601,749.0
281.7299,871.0
281.7996,769.0
281.8693,920.0
281.939,823.0
282.0088,862.0
282.0784,753.0
282.1482,812.0
282.2179,758.0
282.2876,851.0
282.3573,827.0
282.427,876.0
282.4967,796.0
282.5664,845.0
282.6361,797.0
282.7058,861.0
282.7755,796.0
282.8452,860.0
282.9149,772.0
282.9845,884.0
283.0542,808.0
283.1239,818.0
283.1936,772.0
283.2632,864.0
283.3329,724.0
283.4026,846.0
283.4722,779.0
283.5419,844.0
283.6115,746.0
283.6812,860.0
283.7508,743.0
283.8205,825.0
283.8901,732.0
283.9597,821.0
284.0294,704.0
284.099,813.0
284.1686,774.0
284.2383,834.0
284.3079,726.0
284.3775,814.0
284.4471,774.0
284.5168,791.0
284.5864,719.0
284.656,817.0
284.7256,747.0
284.7952,831.0
284.8648,745.0
284.9344,809.0
285.004,728.0
285.0736,863.0
285.1432,747.0
285.2128,840.0
285.2823,732.0
285.3519,848.0
285.4215,743.0
285.4911,833.0
285.5606,814.0
285.6302,810.0
285.6998,768.0
285.7693,821.0
285.8389,732.0
285.9084,827.0
285.978,719.0
286.0475,798.0
286.1171,702.0
286.1866,820.0
286.2562,755.0
286.3257,807.0
286.3952,735.0
286.4648,793.0
286.5343,752.0
286.6039,813.0
286.6733,709.0
286.7429,795.0
286.8124,724.0
286.8819,812.0
286.9514,736.0
287.0209,850.0
287.0904,745.0
287.1599,822.0
287.2294,766.0
287.299,840.0
287.3684,741.0
287.4379,824.0
287.5074,713.0
287.5769,825.0
287.6464,742.0
287.7159,832.0
287.7853,734.0
287.8548,778.0
287.9243,760.0
287.9937,829.0
288.0632,752.0
288.1327,837.0
288.2021,711.0
288.2716,788.0
288.341,746.0
288.4105,794.0
288.4799,740.0
288.5493,845.0
288.6188,694.0
288.6882,785.0
288.7577,751.0
288.8271,826.0
288.8965,696.0
288.9659,861.0
289.0354,738.0
289.1048,855.0
289.1742,717.0
289.2436,834.0
289.313,792.0
289.3824,823.0
289.4518,775.0
289.5212,852.0
289.5906,701.0
289.66,798.0
289.7294,765.0
289.7988,839.0
289.8682,756.0
289.9376,810.0
290.007,771.0
290.0764,872.0
290.1457,787.0
290.2151,838.0
290.2844,753.0
290.3538,843.0
290.4232,750.0
290.4925,809.0
290.5619,691.0
290.6312,880.0
290.7006,755.0
290.7699,839.0
290.8393,772.0
290.9086,869.0
290.978,798.0
291.0473,783.0
291.1166,753.0
291.1859,830.0
291.2553,750.0
291.3246,825.0
291.3939,773.0
291.4632,836.0
291.5325,763.0
291.6018,831.0
291.6712,786.0
291.7405,882.0
291.8098,790.0
291.8791,827.0
291.9484,791.0
292.0176,855.0
292.0869,763.0
292.1562,829.0
292.2255,781.0
292.2948,859.0
292.3641,787.0
292.4334,857.0
292.5026,782.0
292.5719,848.0
292.6412,787.0
292.7104,839.0
292.7797,806.0
292.8489,895.0
292.9182,768.0
292.9875,825.0
293.0567,781.0
293.1259,861.0
293.1952,761.0
293.2644,858.0
293.3336,742.0
293.4029,842.0
293.4721,742.0
293.5413,870.0
293.6106,755.0
293.6798,857.0
293.749,737.0
293.8182,839.0
293.8875,769.0
293.9566,839.0
294.0259,778.0
294.0951,864.0
294.1642,749.0
294.2334,862.0
294.3026,753.0
294.3718,871.0
294.441,792.0
294.5102,864.0
294.5794,765.0
294.6485,858.0
294.7177,771.0
294.7869,840.0
294.8561,736.0
294.9253,856.0
294.9944,711.0
295.0636,827.0
295.1327,766.0
295.2019,832.0
295.271,736.0
295.3402,807.0
295.4093,763.0
295.4785,845.0
295.5476,774.0
295.6168,830.0
295.6859,777.0
295.755,823.0
295.8241,702.0
295.8932,837.0
295.9623,773.0
296.0315,878.0
296.1006,741.0
296.1697,833.0
296.2388,784.0
296.3079,806.0
296.377,785.0
296.4461,852.0
296.5152,780.0
296.5843,872.0
296.6534,733.0
296.7225,860.0
296.7916,748.0
296.8606,870.0
296.9297,776.0
296.9988,818.0
297.0679,746.0
297.137,842.0
297.206,739.0
297.2751,842.0
297.3441,779.0
297.4132,847.0
297.4823,765.0
297.5513,855.0
297.6204,767.0
297.6894,831.0
297.7584,769.0
297.8275,860.0
297.8965,735.0
297.9655,835.0
298.0346,785.0
298.1036,806.0
298.1726,746.0
298.2417,863.0
298.3106,783.0
298.3797,844.0
298.4487,811.0
298.5177,857.0
298.5867,767.0
298.6557,833.0
298.7247,778.0
298.7937,903.0
298.8627,830.0
298.9317,835.0
299.0007,736.0
299.0696,859.0
299.1386,767.0
299.2076,857.0
299.2766,801.0
299.3456,872.0
299.4145,787.0
299.4835,829.0
299.5524,786.0
299.6214,842.0
299.6903,738.0
299.7593,857.0
299.8282,806.0
299.8972,845.0
299.9661,795.0
300.0351,845.0
300.104,768.0
300.173,857.0
300.2419,780.0
300.3108,903.0
300.3797,740.0
300.4487,886.0
300.5176,748.0
300.5865,826.0
300.6554,803.0
300.7243,846.0
300.7932,789.0
300.8621,864.0
300.931,825.0
300.9999,863.0
301.0688,809.0
301.1377,902.0
301.2066,820.0
301.2755,880.0
301.3444,775.0
301.4132,876.0
301.4821,773.0
301.551,876.0
301.6199,818.0
301.6887,897.0
301.7576,790.0
301.8265,876.0
301.8953,814.0
301.9642,837.0
302.033,792.0
302.1019,905.0
302.1707,754.0
302.2396,869.0
302.3084,804.0
302.3772,844.0
302.4461,824.0
302.5149,837.0
302.5837,782.0
302.6526,852.0
302.7214,808.0
302.7902,854.0
302.859,834.0
302.9278,863.0
302.9966,834.0
303.0654,888.0
303.1342,749.0
303.203,891.0
303.2718,781.0
303.3406,885.0
303.4094,824.0
303.4781,880.0
303.547,827.0
303.6158,876.0
303.6845,832.0
303.7533,858.0
303.8221,806.0
303.8908,909.0
303.9596,774.0
304.0284,894.0
304.0971,829.0
304.1659,887.0
304.2346,810.0
304.3034,859.0
304.3721,745.0
304.4409,844.0
304.5096,799.0
304.5784,901.0
304.6471,777.0
304.7158,878.0
304.7845,798.0
304.8533,839.0
304.922,736.0
304.9907,858.0
305.0594,821.0
305.1281,883.0
305.1969,795.0
305.2656,862.0
305.3343,769.0
305.403,862.0
305.4717,795.0
305.5403,871.0
305.609,747.0
305.6778,858.0
305.7464,803.0
305.8151,873.0
305.8838,777.0
305.9525,869.0
306.0211,755.0
306.0898,863.0
306.1585,782.0
306.2271,854.0
306.2958,776.0
306.3645,905.0
306.4331,761.0
306.5017,831.0
306.5704,793.0
306.6391,872.0
306.7077,774.0
306.7763,872.0
306.845,781.0
306.9136,882.0
306.9822,738.0
307.0508,877.0
307.1195,814.0
307.1881,866.0
307.2567,763.0
307.3253,861.0
307.3939,800.0
307.4625,893.0
307.5312,765.0
307.5998,905.0
307.6684,764.0
307.7369,822.0
307.8055,760.0
307.8741,860.0
307.9427,776.0
308.0113,848.0
308.0799,767.0
308.1484,814.0
308.217,778.0
308.2856,818.0
308.3542,766.0
308.4227,847.0
308.4913,793.0
308.5598,855.0
308.6284,739.0
308.6969,875.0
308.7655,785.0
308.834,876.0
308.9026,769.0
308.9711,833.0
309.0396,731.0
309.1082,850.0
309.1767,774.0
309.2452,860.0
309.3138,806.0
309.3823,855.0
309.4508,777.0
309.5193,843.0
309.5878,800.0
309.6563,889.0
309.7249,797.0
309.7933,874.0
309.8618,795.0
309.9303,870.0
309.9988,748.0
310.0673,906.0
310.1358,759.0
310.2043,833.0
310.2728,785.0
310.3412,860.0
310.4097,741.0
310.4781,859.0
310.5466,800.0
310.6151,884.0
310.6836,848.0
310.752,860.0
310.8205,771.0
310.8889,870.0
310.9574,758.0
311.0258,866.0
311.0943,756.0
311.1627,887.0
311.2311,757.0
311.2996,829.0
311.368,769.0
311.4364,824.0
311.5049,757.0
311.5733,846.0
311.6417,774.0
311.7101,854.0
311.7785,756.0
311.8469,848.0
311.9153,791.0
311.9837,849.0
312.0521,787.0
312.1205,834.0
312.1889,760.0
312.2573,859.0
312.3257,756.0
312.3941,849.0
312.4624,777.0
312.5308,774.0
312.5992,753.0
312.6675,842.0
312.7359,752.0
312.8043,806.0
312.8727,745.0
312.941,830.0
313.0093,731.0
313.0777,836.0
313.1461,725.0
313.2144,832.0
313.2827,741.0
313.3511,801.0
313.4194,734.0
313.4877,818.0
313.5561,708.0
313.6244,838.0
313.6927,758.0
313.761,799.0
313.8294,717.0
313.8977,798.0
313.966,669.0
314.0343,789.0
314.1026,727.0
314.1709,832.0
314.2392,741.0
314.3075,812.0
314.3758,724.0
314.4441,825.0
314.5124,738.0
314.5806,814.0
314.6489,708.0
314.7172,840.0
314.7855,710.0
314.8537,791.0
314.922,729.0
314.9903,824.0
315.0585,734.0
315.1268,847.0
315.195,751.0
315.2633,836.0
315.3315,812.0
315.3998,819.0
315.468,729.0
315.5362,803.0
315.6045,730.0
315.6727,830.0
315.7409,743.0
315.8092,820.0
315.8774,743.0
315.9456,823.0
316.0138,793.0
316.082,809.0
316.1502,754.0
316.2184,853.0
316.2867,767.0
316.3549,840.0
316.423,786.0
316.4912,881.0
316.5594,806.0
316.6276,861.0
316.6958,768.0
316.764,873.0
316.8322,748.0
316.9003,835.0
316.9685,762.0
317.0367,872.0
317.1049,806.0
317.173,864.0
317.2411,839.0
317.3093,889.0
317.3774,810.0
317.4456,883.0
317.5137,758.0
317.5819,865.0
317.65,766.0
317.7182,855.0
317.7863,785.0
317.8545,889.0
317.9225,804.0
317.9907,877.0
318.0588,765.0
318.1269,884.0
318.195,826.0
318.2631,856.0
318.3312,770.0
318.3994,860.0
318.4675,752.0
318.5355,855.0
318.6036,762.0
318.6717,881.0
318.7398,808.0
318.8079,884.0
318.876,785.0
318.9441,867.0
319.0121,808.0
319.0802,888.0
319.1483,810.0
319.2164,874.0
319.2844,779.0
319.3525,904.0
319.4205,780.0
319.4886,919.0
319.5566,783.0
319.6247,839.0
319.6927,796.0
319.7608,890.0
319.8288,797.0
319.8968,913.0
319.9648,799.0
320.0329,878.0
320.1009,817.0
320.1689,858.0
320.237,804.0
320.305,897.0
320.373,795.0
320.441,884.0
320.509,811.0
320.577,870.0
320.645,790.0
320.713,865.0
320.781,820.0
320.849,853.0
320.917,741.0
320.985,859.0
321.0529,812.0
321.1209,880.0
321.1889,796.0
321.2568,846.0
321.3248,841.0
321.3928,802.0
321.4608,790.0
321.5287,832.0
321.5966,731.0
321.6646,882.0
321.7325,769.0
321.8005,863.0
321.8684,766.0
321.9364,883.0
322.0043,777.0
322.0722,882.0
322.1401,789.0
322.2081,857.0
322.276,797.0
322.344,872.0
322.4119,819.0
322.4797,884.0
322.5477,786.0
322.6156,854.0
322.6835,824.0
322.7514,877.0
322.8193,782.0
322.8871,889.0
322.955,787.0
323.0229,898.0
323.0908,806.0
323.1588,835.0
323.2266,786.0
323.2945,899.0
323.3623,763.0
323.4302,881.0
323.4981,761.0
323.5659,879.0
323.6338,817.0
323.7016,847.0
323.7695,796.0
323.8373,890.0
323.9052,841.0
323.973,878.0
324.0409,837.0
324.1087,930.0
324.1765,815.0
324.2444,908.0
324.3122,771.0
324.38,918.0
324.4479,825.0
324.5157,975.0
324.5834,1004.0
324.6512,1159.0
324.7191,1087.0
324.7869,1122.0
324.8547,1015.0
324.9225,988.0
324.9903,861.0
325.058,971.0
325.1259,827.0
325.1936,925.0
325.2614,812.0
325.3292,908.0
325.397,841.0
325.4647,885.0
325.5325,816.0
325.6002,852.0
325.668,818.0
325.7358,882.0
325.8036,818.0
325.8713,874.0
325.939,770.0
326.0068,879.0
326.0745,817.0
326.1422,873.0
326.21,791.0
326.2777,913.0
326.3455,783.0
326.4132,896.0
326.4809,820.0
326.5486,891.0
326.6164,772.0
326.6841,871.0
326.7518,836.0
326.8195,924.0
326.8872,823.0
326.9549,926.0
327.0226,799.0
327.0903,910.0
327.158,860.0
327.2256,981.0
327.2933,949.0
327.361,1071.0
327.4287,955.0
327.4964,1022.0
327.5641,880.0
327.6317,900.0
327.6994,779.0
327.767,907.0
327.8347,789.0
327.9023,916.0
327.97,826.0
328.0376,903.0
328.1053,799.0
328.1729,896.0
328.2406,852.0
328.3082,895.0
328.3759,835.0
328.4435,873.0
328.5111,804.0
328.5787,854.0
328.6463,797.0
328.7139,893.0
328.7816,820.0
328.8492,896.0
328.9168,769.0
328.9843,872.0
329.052,772.0
329.1196,840.0
329.1872,774.0
329.2548,880.0
329.3224,806.0
329.3899,852.0
329.4575,738.0
329.5251,877.0
329.5927,776.0
329.6602,845.0
329.7278,792.0
329.7953,879.0
329.8629,768.0
329.9305,870.0
329.998,792.0
330.0656,866.0
330.1331,779.0
330.2007,830.0
330.2682,785.0
330.3358,814.0
330.4033,755.0
330.4708,859.0
330.5383,783.0
330.6059,878.0
330.6734,801.0
330.7409,803.0
330.8084,797.0
330.876,885.0
330.9435,793.0
331.011,812.0
331.0784,739.0
331.1459,872.0
331.2134,782.0
331.2809,840.0
331.3484,742.0
331.4159,813.0
331.4834,744.0
331.5508,805.0
331.6183,754.0
331.6858,825.0
331.7533,760.0
331.8207,834.0
331.8882,778.0
331.9557,845.0
332.0231,786.0
332.0906,806.0
332.1581,757.0
332.2255,819.0
332.2929,724.0
332.3604,815.0
332.4278,785.0
332.4952,798.0
332.5627,745.0
332.6301,834.0
332.6975,717.0
332.7649,844.0
332.8323,757.0
332.8997,860.0
332.9672,751.0
333.0346,868.0
333.102,808.0
333.1694,882.0
333.2368,786.0
333.3042,843.0
333.3716,752.0
333.439,862.0
333.5063,755.0
333.5737,875.0
333.6411,807.0
333.7085,850.0
333.7758,757.0
333.8432,873.0
333.9106,761.0
333.9779,833.0
334.0453,745.0
334.1126,852.0
334.18,808.0
334.2473,822.0
334.3147,768.0
334.382,874.0
334.4494,764.0
334.5167,866.0
334.584,819.0
334.6514,854.0
334.7187,701.0
334.786,912.0
334.8533,745.0
334.9206,855.0
334.9879,691.0
335.0553,864.0
335.1226,722.0
335.1899,838.0
335.2572,749.0
335.3245,837.0
335.3918,772.0
335.459,875.0
335.5263,755.0
335.5936,810.0
335.6609,814.0
335.7282,848.0
335.7954,751.0
335.8627,897.0
335.93,801.0
335.9973,845.0
336.0645,718.0
336.1318,841.0
336.199,780.0
336.2662,832.0
336.3335,760.0
336.4008,853.0
336.468,712.0
336.5352,878.0
336.6024,754.0
336.6697,874.0
336.7369,770.0
336.8041,840.0
336.8714,713.0
336.9386,821.0
337.0058,761.0
337.073,853.0
337.1402,746.0
337.2074,840.0
337.2746,754.0
337.3418,816.0
337.409,750.0
337.4762,801.0
337.5434,768.0
337.6106,831.0
337.6777,722.0
337.7449,845.0
337.8121,766.0
337.8792,798.0
337.9464,759.0
338.0135,813.0
338.0807,740.0
338.1479,865.0
338.2151,715.0
338.2822,801.0
338.3493,764.0
338.4165,804.0
338.4836,754.0
338.5508,847.0
338.6179,736.0
338.6851,818.0
338.7521,756.0
338.8193,877.0
338.8864,745.0
338.9535,832.0
339.0206,747.0
339.0878,818.0
339.1548,748.0
339.222,818.0
339.289,770.0
339.3561,871.0
339.4233,757.0
339.4904,860.0
339.5574,773.0
339.6245,857.0
339.6916,721.0
339.7587,838.0
339.8257,746.0
339.8929,824.0
339.9599,748.0
340.0269,860.0
340.094,727.0
340.1611,819.0
340.2281,724.0
340.2952,814.0
340.3622,780.0
340.4293,791.0
340.4963,753.0
340.5633,816.0
340.6304,783.0
340.6974,830.0
340.7645,747.0
340.8315,832.0
340.8985,724.0
340.9655,797.0
341.0325,717.0
341.0995,823.0
341.1665,742.0
341.2335,828.0
341.3005,748.0
341.3675,818.0
341.4345,733.0
341.5015,809.0
341.5685,716.0
341.6355,848.0
341.7025,715.0
341.7694,838.0
341.8364,748.0
341.9034,864.0
341.9704,780.0
342.0373,827.0
342.1043,679.0
342.1712,872.0
342.2382,736.0
342.3051,864.0
342.3721,765.0
342.4391,865.0
342.506,750.0
342.5729,788.0
342.6398,716.0
342.7068,826.0
342.7737,700.0
342.8406,855.0
342.9076,746.0
342.9745,810.0
343.0414,737.0
343.1083,826.0
343.1752,733.0
343.2421,813.0
343.309,727.0
343.3759,816.0
343.4428,737.0
343.5097,868.0
343.5766,736.0
343.6434,835.0
343.7104,772.0
343.7772,844.0
343.8441,766.0
343.9109,818.0
343.9778,773.0
344.0447,846.0
344.1116,774.0
344.1784,819.0
344.2453,735.0
344.3121,856.0
344.3789,747.0
344.4458,881.0
344.5127,729.0
344.5795,871.0
344.6463,796.0
344.7131,815.0
344.78,758.0
344.8468,830.0
344.9136,711.0
344.9805,840.0
345.0473,739.0
345.1141,877.0
345.1809,751.0
345.2477,895.0
345.3145,778.0
345.3813,861.0
345.4481,774.0
345.5149,859.0
345.5816,759.0
345.6484,889.0
345.7152,762.0
345.782,861.0
345.8488,791.0
345.9155,865.0
345.9823,734.0
346.049,819.0
346.1158,790.0
346.1826,833.0
346.2493,790.0
346.3161,865.0
346.3828,779.0
346.4496,877.0
346.5163,754.0
346.5831,841.0
346.6498,788.0
346.7165,879.0
346.7832,768.0
346.85,865.0
346.9167,750.0
346.9834,854.0
347.0501,761.0
347.1168,820.0
347.1835,794.0
347.2502,853.0
347.3169,733.0
347.3836,844.0
347.4503,692.0
347.517,851.0
347.5837,752.0
347.6504,896.0
347.717,758.0
347.7837,872.0
347.8504,733.0
347.9171,832.0
347.9837,760.0
348.0504,857.0
348.1171,738.0
348.1837,834.0
348.2504,790.0
348.317,854.0
348.3837,750.0
348.4503,841.0
348.5169,723.0
348.5836,845.0
348.6502,779.0
348.7169,847.0
348.7835,834.0
348.8501,869.0
348.9167,798.0
348.9833,893.0
349.0499,771.0
349.1165,859.0
349.1832,738.0
349.2498,863.0
349.3163,802.0
349.3829,813.0
349.4495,783.0
349.5161,803.0
349.5827,785.0
349.6493,881.0
349.7159,716.0
349.7824,879.0
349.849,791.0
349.9156,860.0
349.9821,762.0
350.0487,872.0
350.1153,797.0
350.1818,843.0
350.2484,808.0
350.3149,869.0
350.3814,770.0
350.448,816.0
350.5146,745.0
350.5811,826.0
350.6476,796.0
350.7141,875.0
350.7807,798.0
350.8472,844.0
350.9137,771.0
350.9802,834.0
351.0467,791.0
351.1132,841.0
351.1797,772.0
351.2462,841.0
351.3127,769.0
351.3792,883.0
351.4457,766.0
351.5122,848.0
351.5787,798.0
351.6451,866.0
351.7116,747.0
351.7781,887.0
351.8446,770.0
351.911,871.0
351.9775,787.0
352.044,847.0
352.1104,779.0
352.1769,913.0
352.2433,783.0
352.3098,847.0
352.3762,763.0
352.4427,859.0
352.5091,720.0
352.5755,861.0
352.642,801.0
352.7084,873.0
352.7748,791.0
352.8412,860.0
352.9077,756.0
352.9741,878.0
353.0405,766.0
353.1068,883.0
353.1732,780.0
353.2396,870.0
353.306,755.0
353.3724,859.0
353.4388,803.0
353.5052,862.0
353.5716,791.0
353.638,857.0
353.7043,815.0
353.7707,911.0
353.8371,765.0
353.9034,847.0
353.9698,736.0
354.0362,825.0
354.1025,837.0
354.1689,874.0
354.2352,789.0
354.3016,886.0
354.3679,754.0
354.4342,866.0
354.5005,765.0
354.5669,860.0
354.6332,797.0
354.6996,879.0
354.7659,767.0
354.8322,860.0
354.8985,758.0
354.9648,882.0
355.0311,771.0
355.0974,873.0
355.1637,766.0
355.23,835.0
355.2963,739.0
355.3625,819.0
355.4289,736.0
355.4952,827.0
355.5614,717.0
355.6277,841.0
355.694,747.0
355.7603,772.0
355.8265,723.0
355.8928,836.0
355.959,764.0
356.0253,817.0
356.0916,728.0
356.1578,817.0
356.224,736.0
356.2903,830.0
356.3565,746.0
356.4228,830.0
356.489,716.0
356.5552,832.0
356.6214,735.0
356.6876,831.0
356.7539,765.0
356.8201,858.0
356.8863,764.0
356.9525,831.0
357.0187,721.0
357.0849,818.0
357.1511,735.0
357.2173,798.0
357.2835,729.0
357.3497,840.0
357.4158,751.0
357.482,833.0
357.5482,743.0
357.6144,806.0
357.6805,770.0
357.7467,829.0
357.8128,688.0
357.879,793.0
357.9452,705.0
358.0114,833.0
358.0775,722.0
358.1436,796.0
358.2097,694.0
358.2759,762.0
358.342,696.0
358.4082,837.0
358.4743,700.0
358.5404,793.0
358.6065,755.0
358.6726,772.0
358.7387,712.0
358.8049,812.0
358.871,734.0
358.9371,807.0
359.0032,680.0
359.0693,818.0
359.1353,736.0
359.2014,781.0
359.2676,741.0
359.3336,812.0
359.3997,679.0
359.4658,786.0
359.5318,736.0
359.5979,838.0
359.664,728.0
359.7301,791.0
359.7961,739.0
359.8622,808.0
359.9282,713.0
359.9943,838.0
360.0603,701.0
360.1264,823.0
360.1924,734.0
360.2585,796.0
360.3244,717.0
360.3905,820.0
360.4565,707.0
360.5225,799.0
360.5885,732.0
360.6546,826.0
360.7206,736.0
360.7866,823.0
360.8526,761.0
360.9185,776.0
360.9846,711.0
361.0506,810.0
361.1165,721.0
361.1825,788.0
361.2485,718.0
361.3145,819.0
361.3805,765.0
361.4465,810.0
361.5124,734.0
361.5784,793.0
361.6443,699.0
361.7103,842.0
361.7762,713.0
361.8422,817.0
361.9082,724.0
361.9741,805.0
362.04,719.0
362.106,838.0
362.1719,760.0
362.2379,860.0
362.3038,760.0
362.3697,843.0
362.4356,715.0
362.5015,832.0
362.5675,794.0
362.6334,836.0
362.6993,743.0
362.7652,861.0
362.8311,746.0
362.8969,859.0
362.9629,750.0
363.0287,831.0
363.0947,778.0
363.1605,847.0
363.2264,767.0
363.2923,817.0
363.3582,753.0
363.424,803.0
363.4899,737.0
363.5557,821.0
363.6216,822.0
363.6874,812.0
363.7533,757.0
363.8191,812.0
363.885,736.0
363.9508,823.0
364.0167,722.0
364.0825,836.0
364.1483,748.0
364.2142,868.0
364.28,741.0
364.3458,867.0
364.4116,744.0
364.4774,834.0
364.5432,750.0
364.609,782.0
364.6748,771.0
364.7406,856.0
364.8065,777.0
364.8722,835.0
364.938,743.0
365.0038,795.0
365.0696,766.0
365.1354,838.0
365.2011,723.0
365.2669,857.0
365.3326,735.0
365.3984,797.0
365.4642,765.0
365.5299,811.0
365.5957,732.0
365.6614,857.0
365.7272,742.0
365.7929,856.0
365.8587,763.0
365.9244,872.0
365.9902,738.0
366.0559,825.0
366.1216,734.0
366.1873,833.0
366.253,768.0
366.3188,831.0
366.3845,756.0
366.4502,805.0
366.5159,762.0
366.5816,830.0
366.6473,743.0
366.713,788.0
366.7787,730.0
366.8444,833.0
366.91,723.0
366.9757,815.0
367.0414,758.0
367.1071,843.0
367.1727,730.0
367.2384,815.0
367.3041,737.0
367.3697,797.0
367.4354,713.0
367.501,837.0
367.5667,733.0
367.6323,820.0
367.698,758.0
367.7636,802.0
367.8292,766.0
367.8948,810.0
367.9605,694.0
368.0261,765.0
368.0918,717.0
368.1573,841.0
368.223,707.0
368.2885,793.0
368.3542,716.0
368.4198,806.0
368.4854,696.0
368.551,787.0
368.6165,710.0
368.6821,834.0
368.7477,717.0
368.8133,828.0
368.8789,733.0
368.9445,815.0
369.01,699.0
369.0756,834.0
369.1411,732.0
369.2067,804.0
369.2723,709.0
369.3379,807.0
369.4034,719.0
369.4689,764.0
369.5345,748.0
369.6,776.0
369.6656,693.0
369.7311,759.0
369.7966,698.0
369.8622,790.0
369.9277,746.0
369.9932,784.0
370.0587,715.0
370.1242,789.0
370.1897,697.0
370.2552,777.0
370.3207,700.0
370.3862,801.0
370.4517,704.0
370.5172,828.0
370.5827,712.0
370.6482,816.0
370.7136,708.0
370.7791,764.0
370.8446,704.0
370.9101,790.0
370.9756,656.0
371.041,776.0
371.1064,718.0
371.1719,776.0
371.2373,717.0
371.3028,820.0
371.3683,710.0
371.4337,789.0
371.4991,710.0
371.5646,812.0
371.63,690.0
371.6954,781.0
371.7608,722.0
371.8263,799.0
371.8917,726.0
371.9571,755.0
372.0225,670.0
372.0879,759.0
372.1533,727.0
372.2187,831.0
372.2841,699.0
372.3495,817.0
372.4149,707.0
372.4803,803.0
372.5457,727.0
372.611,815.0
372.6764,710.0
372.7418,821.0
372.8071,713.0
372.8725,819.0
372.9379,745.0
373.0032,833.0
373.0686,756.0
373.1339,832.0
373.1992,709.0
373.2646,826.0
373.3299,700.0
373.3953,842.0
373.4606,738.0
373.5259,818.0
373.5912,679.0
373.6566,826.0
373.7219,731.0
373.7872,833.0
373.8525,723.0
373.9178,763.0
373.9831,729.0
374.0484,799.0
374.1137,726.0
374.179,813.0
374.2443,717.0
374.3096,822.0
374.3749,695.0
374.4401,815.0
374.5054,704.0
374.5706,786.0
374.636,731.0
374.7012,817.0
374.7665,715.0
374.8318,808.0
374.897,735.0
374.9622,817.0
375.0275,710.0
375.0927,819.0
375.158,730.0
375.2232,793.0
375.2885,730.0
375.3537,843.0
375.4189,715.0
375.4841,835.0
375.5493,686.0
375.6145,843.0
375.6797,701.0
375.745,787.0
375.8101,681.0
375.8754,793.0
375.9406,725.0
376.0057,778.0
376.071,715.0
376.1361,814.0
376.2013,754.0
376.2665,808.0
376.3317,713.0
376.3969,805.0
376.462,733.0
376.5272,807.0
376.5923,756.0
376.6575,816.0
376.7226,698.0
376.7878,818.0
376.8529,697.0
376.9181,802.0
376.9832,750.0
377.0483,787.0
377.1135,697.0
377.1786,810.0
377.2437,749.0
377.3089,795.0
377.374,701.0
377.4391,804.0
377.5042,713.0
377.5693,760.0
377.6344,695.0
377.6995,800.0
377.7646,712.0
377.8297,808.0
377.8948,730.0
377.9599,805.0
378.025,750.0
378.09,766.0
378.1551,718.0
378.2202,765.0
378.2852,698.0
378.3503,787.0
378.4154,695.0
378.4804,793.0
378.5455,720.0
378.6105,775.0
378.6755,705.0
378.7406,781.0
378.8057,740.0
378.8707,774.0
378.9357,669.0
379.0008,814.0
379.0658,688.0
379.1308,782.0
379.1958,691.0
379.2609,756.0
379.3259,677.0
379.3908,758.0
379.4558,733.0
379.5208,783.0
379.5858,676.0
379.6509,788.0
379.7159,735.0
379.7808,754.0
379.8458,733.0
379.9108,764.0
379.9758,720.0
380.0407,771.0
380.1057,719.0
380.1707,802.0
380.2356,696.0
380.3006,812.0
380.3655,751.0
380.4305,753.0
380.4955,669.0
380.5604,796.0
380.6253,702.0
380.6902,779.0
380.7552,708.0
380.8201,862.0
380.885,706.0
380.95,757.0
381.0149,749.0
381.0798,794.0
381.1447,695.0
381.2096,825.0
381.2745,694.0
381.3394,816.0
381.4043,717.0
381.4692,801.0
381.5341,720.0
381.5989,781.0
381.6638,716.0
381.7287,808.0
381.7936,674.0
381.8585,790.0
381.9233,770.0
381.9882,784.0
382.053,736.0
382.1179,789.0
382.1828,707.0
382.2476,839.0
382.3124,686.0
382.3773,806.0
382.4421,764.0
382.507,819.0
382.5718,709.0
382.6366,795.0
382.7014,703.0
382.7663,816.0
382.8311,703.0
382.8959,832.0
382.9607,715.0
383.0255,795.0
383.0903,722.0
383.1551,835.0
383.2199,716.0
383.2847,733.0
383.3495,709.0
383.4143,785.0
383.479,693.0
383.5438,812.0
383.6086,704.0
383.6734,804.0
383.7381,704.0
383.8029,790.0
383.8676,728.0
383.9324,810.0
383.9972,688.0
384.0619,828.0
384.1266,687.0
384.1914,790.0
384.2562,711.0
384.3209,712.0
384.3856,672.0
384.4503,847.0
384.515,709.0
384.5797,795.0
384.6445,696.0
384.7092,760.0
384.7739,657.0
384.8386,774.0
384.9033,739.0
384.968,766.0
385.0327,698.0
385.0974,742.0
385.162,727.0
385.2267,789.0
385.2914,711.0
385.3561,769.0
385.4208,709.0
385.4854,767.0
385.5501,682.0
385.6147,741.0
385.6794,712.0
385.7441,772.0
385.8087,713.0
385.8734,807.0
385.938,670.0
386.0027,740.0
386.0673,740.0
386.1319,790.0
386.1966,701.0
386.2612,801.0
386.3258,680.0
386.3904,780.0
386.455,695.0
386.5196,758.0
386.5843,750.0
386.6489,788.0
386.7135,714.0
386.778,765.0
386.8426,667.0
386.9072,783.0
386.9718,724.0
387.0364,775.0
387.101,720.0
387.1655,809.0
387.2301,703.0
387.2946,812.0
387.3593,685.0
387.4238,750.0
387.4884,728.0
387.5529,807.0
387.6175,714.0
387.682,782.0
387.7466,693.0
387.8111,794.0
387.8756,693.0
387.9402,789.0
388.0047,713.0
388.0692,768.0
388.1337,699.0
388.1982,804.0
388.2628,732.0
388.3272,782.0
388.3918,718.0
388.4563,799.0
388.5208,692.0
388.5852,790.0
388.6497,719.0
388.7142,775.0
388.7787,743.0
388.8432,810.0
388.9077,703.0
388.9721,753.0
389.0366,679.0
389.1011,777.0
389.1655,661.0
389.23,763.0
389.2944,692.0
389.3589,783.0
389.4233,720.0
389.4878,782.0
389.5522,677.0
389.6167,790.0
389.6811,699.0
389.7455,778.0
389.8099,697.0
389.8744,744.0
389.9388,741.0
390.0032,827.0
390.0676,723.0
390.132,796.0
390.1964,690.0
390.2608,806.0
390.3252,695.0
390.3896,769.0
390.454,706.0
390.5184,813.0
390.5827,687.0
390.6471,795.0
390.7115,734.0
390.7759,809.0
390.8402,704.0
390.9046,801.0
390.9689,725.0
391.0333,793.0
391.0977,722.0
391.162,812.0
391.2264,664.0
391.2907,772.0
391.355,748.0
391.4193,777.0
391.4837,704.0
391.548,786.0
391.6123,726.0
391.6767,846.0
391.741,708.0
391.8053,820.0
391.8696,711.0
391.9339,797.0
391.9982,733.0
392.0625,822.0
392.1268,752.0
392.1911,825.0
392.2553,688.0
392.3196,820.0
392.3839,719.0
392.4482,770.0
392.5125,696.0
392.5767,858.0
392.641,754.0
392.7053,769.0
392.7695,707.0
392.8338,862.0
392.898,739.0
392.9622,809.0
393.0265,716.0
393.0908,785.0
393.155,737.0
393.2192,829.0
393.2834,742.0
393.3477,810.0
393.4118,722.0
393.476,794.0
393.5403,670.0
393.6045,795.0
393.6687,717.0
393.7329,771.0
393.7971,693.0
393.8613,785.0
393.9255,699.0
393.9897,786.0
394.0539,707.0
394.118,818.0
394.1822,686.0
394.2464,795.0
394.3105,713.0
394.3747,805.0
394.4389,781.0
394.503,793.0
394.5672,695.0
394.6313,810.0
394.6954,748.0
394.7596,784.0
394.8238,704.0
394.8879,755.0
394.952,675.0
395.0161,742.0
395.0803,716.0
395.1444,806.0
395.2085,689.0
395.2726,791.0
395.3367,723.0
395.4008,780.0
395.4649,701.0
395.529,770.0
395.5931,727.0
395.6572,791.0
395.7213,680.0
395.7854,764.0
395.8495,665.0
395.9135,731.0
395.9776,681.0
396.0417,740.0
396.1057,690.0
396.1698,736.0
396.2339,661.0
396.2979,776.0
396.362,664.0
396.426,745.0
396.4901,672.0
396.5541,754.0
396.6181,688.0
396.6821,756.0
396.7462,658.0
396.8102,766.0
396.8743,701.0
396.9383,786.0
397.0023,676.0
397.0662,737.0
397.1302,665.0
397.1943,684.0
397.2583,677.0
397.3223,740.0
397.3862,662.0
397.4502,750.0
397.5142,634.0
397.5782,718.0
397.6422,662.0
397.7061,709.0
397.7701,659.0
397.8341,735.0
397.898,671.0
397.962,777.0
398.0259,670.0
398.0899,715.0
398.1538,695.0
398.2178,737.0
398.2817,674.0
398.3456,755.0
398.4096,657.0
398.4735,763.0
398.5374,664.0
398.6013,751.0
398.6653,687.0
398.7292,706.0
398.7931,681.0
398.857,732.0
398.9209,669.0
398.9848,743.0
399.0487,687.0
399.1125,740.0
399.1765,694.0
399.2404,694.0
399.3042,701.0
399.3681,769.0
399.432,626.0
399.4958,779.0
399.5597,641.0
399.6236,756.0
399.6875,706.0
399.7513,727.0
399.8152,711.0
399.879,734.0
399.9428,716.0
400.0067,761.0
400.0705,695.0
400.1343,765.0
400.1982,681.0
400.262,796.0
400.3258,660.0
400.3896,745.0
400.4534,652.0
400.5172,786.0
400.581,638.0
400.6448,766.0
400.7086,678.0
400.7724,724.0
400.8362,699.0
400.9,717.0
400.9638,647.0
401.0276,805.0
401.0913,718.0
401.1551,757.0
401.2189,648.0
401.2826,771.0
401.3464,704.0
401.4102,765.0
401.4739,710.0
401.5376,774.0
401.6014,719.0
401.6651,760.0
401.7289,698.0
401.7926,799.0
401.8564,703.0
401.92,765.0
401.9838,724.0
402.0475,805.0
402.1112,711.0
402.175,769.0
402.2386,654.0
402.3023,740.0
402.366,672.0
402.4297,805.0
402.4934,712.0
402.5571,745.0
402.6208,718.0
402.6845,766.0
402.7482,666.0
402.8118,734.0
402.8755,698.0
402.9392,769.0
403.0028,717.0
403.0665,793.0
403.1301,703.0
403.1938,775.0
403.2574,688.0
403.3211,780.0
403.3847,676.0
403.4484,781.0
403.512,677.0
403.5756,766.0
403.6393,700.0
403.7029,752.0
403.7665,710.0
403.8301,788.0
403.8937,679.0
403.9573,766.0
404.0209,672.0
404.0845,805.0
404.1481,660.0
404.2117,795.0
404.2753,723.0
404.3389,784.0
404.4024,668.0
404.466,764.0
404.5296,713.0
404.5932,749.0
404.6567,726.0
404.7203,784.0
404.7838,684.0
404.8474,762.0
404.9109,658.0
404.9745,729.0
405.0381,682.0
405.1016,774.0
405.1651,659.0
405.2286,751.0
405.2922,680.0
405.3557,735.0
405.4193,651.0
405.4828,765.0
405.5462,657.0
405.6097,724.0
405.6733,681.0
405.7368,791.0
405.8003,660.0
405.8638,732.0
405.9272,642.0
405.9907,742.0
406.0542,649.0
406.1177,774.0
406.1812,710.0
406.2446,755.0
406.3081,661.0
406.3716,738.0
406.435,695.0
406.4985,743.0
406.562,661.0
406.6254,786.0
406.6888,701.0
406.7523,739.0
406.8157,651.0
406.8791,730.0
406.9426,657.0
407.006,712.0
407.0694,711.0
407.1328,801.0
407.1962,703.0
407.2597,734.0
407.3231,694.0
407.3865,773.0
407.4499,686.0
407.5133,775.0
407.5767,735.0
407.64,785.0
407.7034,672.0
407.7668,743.0
407.8302,691.0
407.8936,777.0
407.9569,668.0
408.0203,754.0
408.0836,677.0
408.147,777.0
408.2104,698.0
408.2737,768.0
408.3371,705.0
408.4004,796.0
408.4637,698.0
408.5271,799.0
408.5905,732.0
408.6537,742.0
408.7171,700.0
408.7804,741.0
408.8437,715.0
408.907,786.0
408.9703,665.0
409.0336,828.0
409.0969,708.0
409.1602,771.0
409.2235,705.0
409.2868,766.0
409.3501,708.0
409.4134,802.0
409.4767,675.0
409.5399,802.0
409.6032,715.0
409.6665,762.0
409.7297,703.0
409.793,765.0
409.8563,673.0
409.9195,753.0
409.9827,703.0
410.046,763.0
410.1092,692.0
410.1725,774.0
410.2357,694.0
410.299,745.0
410.3622,711.0
410.4254,780.0
410.4886,709.0
410.5518,781.0
410.615,714.0
410.6782,797.0
410.7414,692.0
410.8046,800.0
410.8678,670.0
410.931,757.0
410.9942,702.0
411.0574,758.0
411.1205,694.0
411.1837,769.0
411.2469,692.0
411.3101,733.0
411.3733,669.0
411.4364,725.0
411.4995,666.0
411.5627,738.0
411.6259,654.0
411.689,758.0
411.7521,682.0
411.8153,765.0
411.8784,711.0
411.9415,745.0
412.0046,713.0
412.0678,735.0
412.1309,654.0
412.194,737.0
412.2571,680.0
412.3203,734.0
412.3833,657.0
412.4464,735.0
412.5096,656.0
412.5727,712.0
412.6357,661.0
412.6988,756.0
412.7619,663.0
412.825,738.0
412.8881,656.0
412.9511,740.0
413.0142,616.0
413.0772,739.0
413.1403,643.0
413.2033,732.0
413.2664,638.0
413.3294,692.0
413.3925,627.0
413.4555,755.0
413.5186,624.0
413.5816,731.0
413.6446,644.0
413.7076,699.0
413.7707,595.0
413.8337,728.0
413.8967,633.0
413.9597,738.0
414.0227,645.0
414.0857,735.0
414.1487,616.0
414.2117,708.0
414.2747,631.0
414.3376,744.0
414.4006,673.0
414.4636,708.0
414.5266,668.0
414.5896,727.0
414.6525,642.0
414.7155,748.0
414.7784,640.0
414.8414,730.0
414.9044,647.0
414.9673,759.0
415.0303,660.0
415.0932,752.0
415.1561,703.0
415.2191,695.0
415.282,673.0
415.3449,786.0
415.4079,618.0
415.4708,717.0
415.5336,641.0
415.5966,746.0
415.6595,663.0
415.7224,779.0
415.7853,654.0
415.8482,744.0
415.9111,663.0
415.9739,737.0
416.0368,693.0
416.0997,755.0
416.1626,660.0
416.2255,727.0
416.2883,708.0
416.3512,744.0
416.414,681.0
416.4769,764.0
416.5397,643.0
416.6026,712.0
416.6654,650.0
416.7283,746.0
416.7911,662.0
416.8539,743.0
416.9167,696.0
416.9796,747.0
417.0424,697.0
417.1052,733.0
417.168,663.0
417.2308,724.0
417.2936,695.0
417.3564,764.0
417.4193,602.0
417.4821,683.0
417.5448,642.0
417.6076,725.0
417.6704,648.0
417.7332,719.0
417.796,685.0
417.8587,759.0
417.9215,680.0
417.9842,718.0
418.047,649.0
418.1098,746.0
418.1725,685.0
418.2353,734.0
418.298,609.0
418.3607,702.0
418.4235,625.0
418.4862,754.0
418.549,679.0
418.6117,742.0
418.6744,637.0
418.7371,740.0
418.7998,637.0
418.8625,739.0
418.9252,637.0
418.9879,716.0
419.0507,604.0
419.1133,674.0
419.176,639.0
419.2387,740.0
419.3014,624.0
419.3641,720.0
419.4268,681.0
419.4894,701.0
419.5521,652.0
419.6147,732.0
419.6774,632.0
419.7401,700.0
419.8027,632.0
419.8654,748.0
419.928,626.0
419.9906,764.0
420.0533,672.0
420.1159,688.0
420.1785,636.0
420.2411,681.0
420.3038,614.0
420.3664,758.0
420.429,624.0
420.4916,744.0
420.5542,652.0
420.6168,775.0
420.6794,641.0
420.742,664.0
420.8046,674.0
420.8672,698.0
420.9297,667.0
420.9923,750.0
421.0549,650.0
421.1175,727.0
421.18,639.0
421.2426,671.0
421.3052,633.0
421.3677,719.0
421.4303,651.0
421.4928,721.0
421.5554,607.0
421.6179,686.0
421.6804,629.0
421.743,693.0
421.8055,646.0
421.868,705.0
421.9305,625.0
421.993,700.0
422.0556,626.0
422.1181,687.0
422.1806,610.0
422.2431,708.0
422.3055,664.0
422.368,711.0
422.4305,643.0
422.493,715.0
422.5555,610.0
422.618,678.0
422.6805,673.0
422.7429,707.0
422.8054,671.0
422.8679,699.0
422.9303,623.0
422.9928,722.0
423.0552,647.0
423.1177,725.0
423.1801,631.0
423.2425,751.0
423.305,659.0
423.3674,717.0
423.4298,688.0
423.4922,741.0
423.5547,621.0
423.617,717.0
423.6795,648.0
423.7419,730.0
423.8043,688.0
423.8667,724.0
423.9291,658.0
423.9915,714.0
424.0538,697.0
424.1163,734.0
424.1786,650.0
424.241,733.0
424.3034,643.0
424.3658,722.0
424.4281,711.0
424.4905,745.0
424.5529,662.0
424.6152,775.0
424.6775,645.0
424.7399,777.0
424.8022,676.0
424.8646,761.0
424.9269,715.0
424.9892,766.0
425.0515,726.0
425.1139,776.0
425.1762,650.0
425.2385,751.0
425.3008,695.0
425.3631,729.0
425.4254,682.0
425.4877,783.0
425.55,683.0
425.6123,779.0
425.6746,714.0
425.7369,779.0
425.7992,741.0
425.8614,765.0
425.9237,695.0
425.9859,775.0
426.0482,719.0
426.1105,776.0
426.1727,676.0
426.235,703.0
426.2972,689.0
426.3595,769.0
426.4217,704.0
426.4839,804.0
426.5462,719.0
426.6084,782.0
426.6706,728.0
426.7328,832.0
426.795,718.0
426.8573,783.0
426.9195,709.0
426.9817,782.0
427.0439,702.0
427.1061,759.0
427.1683,701.0
427.2305,744.0
427.2927,687.0
427.3549,749.0
427.417,713.0
427.4792,804.0
427.5413,688.0
427.6035,763.0
427.6657,682.0
427.7278,742.0
427.79,700.0
427.8521,766.0
427.9142,705.0
427.9764,753.0
428.0386,655.0
428.1007,748.0
428.1628,703.0
428.2249,756.0
428.287,682.0
428.3492,807.0
428.4113,666.0
428.4734,833.0
428.5355,672.0
428.5976,769.0
428.6597,667.0
428.7218,775.0
428.7839,686.0
428.846,752.0
428.9081,670.0
428.9702,761.0
429.0322,681.0
429.0943,769.0
429.1563,664.0
429.2184,759.0
429.2805,684.0
429.3425,726.0
429.4046,662.0
429.4666,726.0
429.5287,685.0
429.5908,760.0
429.6528,625.0
429.7148,751.0
429.7768,649.0
429.8388,696.0
429.9008,640.0
429.9629,716.0
430.0249,657.0
430.0869,752.0
430.1489,676.0
430.2109,760.0
430.2729,662.0
430.3349,756.0
430.3969,686.0
430.4589,744.0
430.5208,702.0
430.5828,737.0
430.6448,638.0
430.7068,741.0
430.7688,646.0
430.8307,725.0
430.8926,680.0
430.9546,753.0
431.0165,648.0
431.0785,725.0
431.1404,634.0
431.2024,742.0
431.2643,688.0
431.3262,758.0
431.3881,670.0
431.4501,727.0
431.512,643.0
431.5739,762.0
431.6358,605.0
431.6977,735.0
431.7596,601.0
431.8215,681.0
431.8834,629.0
431.9453,680.0
432.0072,665.0
432.0691,728.0
432.131,612.0
432.1928,724.0
432.2547,598.0
432.3165,708.0
432.3784,582.0
432.4403,678.0
432.5021,632.0
432.564,733.0
432.6258,630.0
432.6876,715.0
432.7495,643.0
432.8113,696.0
432.8732,622.0
432.935,703.0
432.9968,621.0
433.0586,707.0
433.1204,616.0
433.1823,743.0
433.2441,613.0
433.3059,718.0
433.3677,635.0
433.4295,670.0
433.4912,643.0
433.5531,738.0
433.6148,637.0
433.6766,723.0
433.7384,641.0
433.8001,675.0
433.8619,615.0
433.9237,728.0
433.9854,623.0
434.0472,708.0
434.1089,633.0
434.1707,677.0
434.2324,642.0
434.2942,755.0
434.3559,598.0
434.4177,750.0
434.4794,644.0
434.5411,717.0
434.6028,673.0
434.6645,677.0
434.7263,647.0
434.788,752.0
434.8497,662.0
434.9113,710.0
434.973,628.0
435.0347,723.0
435.0965,652.0
435.1581,717.0
435.2198,679.0
435.2815,718.0
435.3431,651.0
435.4048,732.0
435.4665,662.0
435.5282,721.0
435.5898,677.0
435.6515,737.0
435.7131,644.0
435.7747,763.0
435.8363,664.0
435.898,744.0
435.9597,656.0
436.0213,698.0
436.0829,649.0
436.1445,738.0
436.2061,644.0
436.2678,714.0
436.3294,659.0
436.391,730.0
436.4525,721.0
436.5141,730.0
436.5757,655.0
436.6373,737.0
436.6989,689.0
436.7605,712.0
436.8221,683.0
436.8836,717.0
436.9452,654.0
437.0067,716.0
437.0684,694.0
437.1299,717.0
437.1914,622.0
437.253,735.0
437.3145,680.0
437.3761,753.0
437.4376,634.0
437.4992,749.0
437.5607,665.0
437.6222,720.0
437.6837,598.0
437.7452,761.0
437.8067,680.0
437.8683,750.0
437.9298,718.0
437.9913,727.0
438.0528,660.0
438.1143,728.0
438.1757,657.0
438.2372,715.0
438.2987,677.0
438.3602,740.0
438.4217,676.0
438.4831,716.0
438.5446,677.0
438.6061,738.0
438.6675,622.0
438.729,752.0
438.7904,650.0
438.8519,746.0
438.9133,675.0
438.9747,737.0
439.0362,624.0
439.0976,739.0
439.159,663.0
439.2204,763.0
439.2819,624.0
439.3433,784.0
439.4047,677.0
439.4661,741.0
439.5275,665.0
439.5889,748.0
439.6503,654.0
439.7116,738.0
439.7731,684.0
439.8345,790.0
439.8958,634.0
439.9572,745.0
440.0186,737.0
440.0799,750.0
440.1413,683.0
440.2027,719.0
440.264,676.0
440.3253,740.0
440.3867,701.0
440.448,731.0
440.5093,677.0
440.5707,800.0
440.632,676.0
440.6934,760.0
440.7546,649.0
440.816,778.0
440.8773,662.0
440.9386,770.0
440.9999,700.0
441.0612,756.0
441.1225,687.0
441.1838,719.0
441.2451,683.0
441.3063,738.0
441.3677,672.0
441.429,763.0
441.4902,641.0
441.5515,725.0
441.6127,661.0
441.674,760.0
441.7353,733.0
441.7965,736.0
441.8578,662.0
441.919,758.0
441.9802,652.0
442.0414,778.0
442.1027,654.0
442.164,769.0
442.2252,661.0
442.2864,752.0
442.3476,685.0
442.4088,781.0
442.47,678.0
442.5312,784.0
442.5924,676.0
442.6536,714.0
442.7148,676.0
442.776,759.0
442.8372,660.0
442.8984,762.0
442.9596,693.0
443.0207,786.0
443.0819,671.0
443.143,742.0
443.2042,697.0
443.2653,740.0
443.3265,683.0
443.3877,723.0
443.4488,667.0
443.5099,738.0
443.5711,672.0
443.6322,769.0
443.6934,675.0
443.7545,755.0
443.8156,661.0
443.8767,762.0
443.9378,682.0
443.9989,739.0
444.0601,691.0
444.1212,740.0
444.1822,705.0
444.2433,761.0
444.3044,693.0
444.3654,733.0
444.4265,638.0
444.4877,740.0
444.5487,648.0
444.6098,824.0
444.6708,690.0
444.7319,777.0
444.7929,684.0
444.854,750.0
444.915,716.0
444.9761,781.0
445.0371,682.0
445.0981,744.0
445.1592,667.0
445.2203,774.0
445.2812,698.0
445.3423,777.0
445.4033,686.0
445.4643,781.0
445.5253,685.0
445.5862,797.0
445.6473,714.0
445.7083,783.0
445.7693,724.0
445.8303,774.0
445.8912,690.0
445.9522,761.0
446.0132,745.0
446.0742,774.0
446.1352,735.0
446.1961,771.0
446.257,742.0
446.318,762.0
446.379,695.0
446.4399,747.0
446.5009,701.0
446.5618,779.0
446.6227,705.0
446.6836,749.0
446.7446,703.0
446.8055,748.0
446.8664,683.0
446.9273,776.0
446.9883,708.0
447.0491,765.0
447.11,698.0
447.171,799.0
447.2319,674.0
447.2927,758.0
447.3536,720.0
447.4145,779.0
447.4753,705.0
447.5363,765.0
447.5971,687.0
447.658,794.0
447.7188,707.0
447.7797,758.0
447.8405,688.0
447.9014,759.0
447.9623,705.0
448.0231,731.0
448.0839,683.0
448.1447,726.0
448.2056,665.0
448.2664,748.0
448.3272,683.0
448.3881,737.0
448.4489,669.0
448.5096,732.0
448.5705,636.0
448.6312,727.0
448.6921,660.0
448.7529,750.0
448.8137,672.0
448.8744,734.0
448.9352,659.0
448.9959,728.0
449.0567,709.0
449.1175,766.0
449.1783,653.0
449.239,727.0
449.2998,660.0
449.3605,712.0
449.4213,675.0
449.4821,740.0
449.5428,677.0
449.6035,776.0
449.6642,650.0
449.725,743.0
449.7857,658.0
449.8464,788.0
449.9071,662.0
449.9679,745.0
450.0285,663.0
450.0892,773.0
450.1499,628.0
450.2106,701.0
450.2714,638.0
450.332,695.0
450.3927,660.0
450.4534,718.0
450.514,678.0
450.5747,721.0
450.6354,645.0
450.696,742.0
450.7567,635.0
450.8174,707.0
450.878,654.0
450.9386,720.0
450.9993,649.0
451.0599,701.0
451.1206,649.0
451.1812,729.0
451.2418,650.0
451.3024,692.0
451.363,616.0
451.4236,748.0
451.4843,626.0
451.5449,741.0
451.6054,656.0
451.666,724.0
451.7267,666.0
451.7873,703.0
451.8478,618.0
451.9084,730.0
451.969,592.0
452.0295,759.0
452.0901,661.0
452.1507,729.0
452.2113,603.0
452.2718,664.0
452.3324,665.0
452.3929,684.0
452.4534,630.0
452.5139,711.0
452.5745,620.0
452.635,706.0
452.6956,634.0
452.7561,681.0
452.8166,653.0
452.8771,734.0
452.9377,615.0
452.9981,693.0
453.0586,632.0
453.1191,736.0
453.1796,665.0
453.2401,687.0
453.3006,680.0
453.3611,714.0
453.4216,588.0
453.4821,686.0
453.5425,627.0
453.6029,722.0
453.6634,591.0
453.7239,732.0
453.7844,677.0
453.8448,713.0
453.9052,623.0
453.9656,735.0
454.0261,666.0
454.0866,758.0
454.147,612.0
454.2074,727.0
454.2678,633.0
454.3282,731.0
454.3886,665.0
454.449,708.0
454.5095,623.0
454.5699,704.0
454.6302,663.0
454.6906,732.0
454.751,624.0
454.8114,757.0
454.8718,638.0
454.9322,725.0
454.9925,618.0
455.0529,688.0
455.1133,668.0
455.1736,697.0
455.234,664.0
455.2943,713.0
455.3547,656.0
455.415,738.0
455.4753,616.0
455.5357,718.0
455.5959,620.0
455.6563,728.0
455.7167,617.0
455.777,746.0
455.8373,647.0
455.8976,674.0
455.9579,700.0
456.0182,684.0
456.0785,615.0
456.1388,721.0
456.1991,645.0
456.2593,738.0
456.3196,620.0
456.3799,701.0
456.4402,662.0
456.5005,716.0
456.5607,663.0
456.621,698.0
456.6812,630.0
456.7414,681.0
456.8018,646.0
456.862,701.0
456.9222,593.0
456.9825,683.0
457.0426,612.0
457.1028,665.0
457.1631,612.0
457.2234,704.0
457.2835,613.0
457.3438,720.0
457.404,590.0
457.4641,686.0
457.5244,626.0
457.5846,718.0
457.6447,594.0
457.7049,699.0
457.7651,627.0
457.8253,695.0
457.8854,617.0
457.9456,671.0
458.0058,569.0
458.0659,685.0
458.1261,615.0
458.1862,696.0
458.2464,619.0
458.3066,698.0
458.3667,626.0
458.4268,687.0
458.4869,660.0
458.5471,691.0
458.6072,643.0
458.6674,691.0
458.7274,605.0
458.7876,736.0
458.8477,653.0
458.9077,687.0
458.9679,615.0
459.0279,706.0
459.0881,614.0
459.1481,738.0
459.2082,629.0
459.2683,707.0
459.3283,605.0
459.3884,731.0
459.4485,623.0
459.5086,654.0
459.5686,589.0
459.6287,670.0
459.6887,637.0
459.7487,711.0
459.8088,677.0
459.8688,694.0
459.9289,587.0
459.9889,728.0
460.0489,653.0
460.1089,748.0
460.1689,689.0
460.229,701.0
460.289,592.0
