Laser settings:
	Diode frequency:	5 Hz
	Pulses fired:		10
	Q-Switch blanking:	5
	Q-Switch delay:		201 μs
	Q-Switch presync:	1 μs
Spectrometer settings:
	Integration time:	0.0090 ms
	Integration delay:	0.000 ns
	Averaging:		1
	Trigger mode:		External
	Dynamic Dark Correction:		Disabled


wavelength,intensity
184.9409,685.0
185.0142,595.0
185.0875,671.0
185.1608,659.0
185.2341,685.0
185.3074,568.0
185.3807,707.0
185.454,631.0
185.5273,697.0
185.6006,660.0
185.6739,652.0
185.7472,597.0
185.8205,685.0
185.8938,620.0
185.9671,698.0
186.0403,630.0
186.1136,656.0
186.1869,598.0
186.2601,692.0
186.3334,569.0
186.4067,647.0
186.4799,582.0
186.5532,693.0
186.6265,614.0
186.6997,710.0
186.773,633.0
186.8462,725.0
186.9195,584.0
186.9928,655.0
187.066,629.0
187.1392,690.0
187.2125,668.0
187.2857,688.0
187.3589,619.0
187.4322,690.0
187.5054,623.0
187.5786,680.0
187.6519,644.0
187.7251,751.0
187.7983,647.0
187.8715,721.0
187.9447,622.0
188.018,686.0
188.0912,637.0
188.1644,703.0
188.2376,618.0
188.3108,707.0
188.384,631.0
188.4572,704.0
188.5304,685.0
188.6036,713.0
188.6768,655.0
188.75,741.0
188.8232,632.0
188.8963,698.0
188.9695,634.0
189.0427,745.0
189.1159,684.0
189.1891,720.0
189.2623,657.0
189.3354,719.0
189.4086,652.0
189.4818,714.0
189.5549,670.0
189.6281,762.0
189.7012,655.0
189.7744,690.0
189.8476,615.0
189.9207,761.0
189.9939,671.0
190.067,733.0
190.1402,677.0
190.2133,693.0
190.2864,652.0
190.3596,739.0
190.4327,674.0
190.5059,710.0
190.579,648.0
190.6521,710.0
190.7253,677.0
190.7984,733.0
190.8715,667.0
190.9446,756.0
191.0177,651.0
191.0908,736.0
191.164,662.0
191.2371,725.0
191.3102,662.0
191.3833,707.0
191.4564,670.0
191.5295,725.0
191.6026,626.0
191.6757,745.0
191.7488,679.0
191.8219,741.0
191.895,706.0
191.968,745.0
192.0411,664.0
192.1142,753.0
192.1873,636.0
192.2604,767.0
192.3334,644.0
192.4065,786.0
192.4796,674.0
192.5527,750.0
192.6257,653.0
192.6988,728.0
192.7718,737.0
192.8449,793.0
192.918,765.0
192.991,874.0
193.064,852.0
193.1371,924.0
193.2101,862.0
193.2832,900.0
193.3562,789.0
193.4292,832.0
193.5023,708.0
193.5753,773.0
193.6484,714.0
193.7214,776.0
193.7944,702.0
193.8674,744.0
193.9405,666.0
194.0135,785.0
194.0865,694.0
194.1595,821.0
194.2325,716.0
194.3055,769.0
194.3785,660.0
194.4515,779.0
194.5246,722.0
194.5975,776.0
194.6705,626.0
194.7435,754.0
194.8165,691.0
194.8895,743.0
194.9625,698.0
195.0355,729.0
195.1085,695.0
195.1815,787.0
195.2544,685.0
195.3274,747.0
195.4004,700.0
195.4734,769.0
195.5463,681.0
195.6193,764.0
195.6923,761.0
195.7652,756.0
195.8382,706.0
195.9111,792.0
195.9841,690.0
196.057,780.0
196.13,720.0
196.2029,731.0
196.2759,662.0
196.3488,755.0
196.4218,744.0
196.4947,758.0
196.5676,679.0
196.6406,761.0
196.7135,663.0
196.7864,798.0
196.8593,679.0
196.9323,751.0
197.0052,712.0
197.0781,771.0
197.151,677.0
197.2239,743.0
197.2969,683.0
197.3697,770.0
197.4427,681.0
197.5156,790.0
197.5885,669.0
197.6614,761.0
197.7343,659.0
197.8072,806.0
197.88,705.0
197.9529,716.0
198.0258,712.0
198.0987,767.0
198.1716,691.0
198.2445,738.0
198.3173,690.0
198.3902,710.0
198.4631,657.0
198.5359,783.0
198.6088,617.0
198.6817,791.0
198.7545,709.0
198.8274,712.0
198.9003,727.0
198.9731,788.0
199.046,665.0
199.1188,762.0
199.1917,696.0
199.2645,779.0
199.3373,702.0
199.4102,752.0
199.483,735.0
199.5559,736.0
199.6287,713.0
199.7015,773.0
199.7744,720.0
199.8472,757.0
199.92,682.0
199.9928,734.0
200.0656,672.0
200.1385,734.0
200.2113,716.0
200.2841,757.0
200.3569,677.0
200.4297,726.0
200.5025,691.0
200.5753,762.0
200.6481,690.0
200.7209,774.0
200.7937,699.0
200.8665,757.0
200.9393,659.0
201.0121,787.0
201.0848,655.0
201.1576,797.0
201.2304,662.0
201.3032,753.0
201.3759,723.0
201.4487,771.0
201.5215,716.0
201.5943,777.0
201.667,682.0
201.7398,723.0
201.8125,661.0
201.8853,766.0
201.958,656.0
202.0308,769.0
202.1035,705.0
202.1763,804.0
202.249,715.0
202.3218,758.0
202.3945,702.0
202.4673,772.0
202.54,742.0
202.6127,759.0
202.6855,693.0
202.7582,725.0
202.8309,682.0
202.9036,777.0
202.9764,669.0
203.0491,758.0
203.1218,714.0
203.1945,765.0
203.2672,686.0
203.3399,772.0
203.4126,675.0
203.4853,771.0
203.558,688.0
203.6307,755.0
203.7034,692.0
203.7761,763.0
203.8488,705.0
203.9215,768.0
203.9942,681.0
204.0669,756.0
204.1395,691.0
204.2122,750.0
204.2849,662.0
204.3576,748.0
204.4302,710.0
204.5029,791.0
204.5756,723.0
204.6482,735.0
204.7209,704.0
204.7935,775.0
204.8662,699.0
204.9389,813.0
205.0115,717.0
205.0842,766.0
205.1568,715.0
205.2294,731.0
205.3021,712.0
205.3747,736.0
205.4474,693.0
205.52,743.0
205.5926,693.0
205.6653,778.0
205.7379,688.0
205.8105,748.0
205.8831,705.0
205.9557,728.0
206.0284,691.0
206.101,742.0
206.1736,664.0
206.2462,782.0
206.3188,668.0
206.3914,731.0
206.464,687.0
206.5366,770.0
206.6092,669.0
206.6818,738.0
206.7544,693.0
206.827,761.0
206.8996,653.0
206.9721,740.0
207.0447,709.0
207.1173,736.0
207.1899,686.0
207.2625,784.0
207.335,744.0
207.4076,782.0
207.4802,704.0
207.5527,747.0
207.6253,684.0
207.6978,736.0
207.7704,723.0
207.843,750.0
207.9155,669.0
207.9881,776.0
208.0606,678.0
208.1331,773.0
208.2057,701.0
208.2782,794.0
208.3508,716.0
208.4233,787.0
208.4958,720.0
208.5684,762.0
208.6409,723.0
208.7134,754.0
208.7859,705.0
208.8584,762.0
208.931,667.0
209.0035,743.0
209.076,719.0
209.1485,748.0
209.221,649.0
209.2935,747.0
209.366,703.0
209.4385,801.0
209.511,682.0
209.5835,776.0
209.656,679.0
209.7285,771.0
209.801,694.0
209.8735,767.0
209.9459,690.0
210.0184,773.0
210.0909,681.0
210.1634,765.0
210.2358,719.0
210.3083,749.0
210.3808,664.0
210.4532,730.0
210.5257,694.0
210.5982,745.0
210.6706,674.0
210.7431,740.0
210.8155,693.0
210.888,723.0
210.9604,640.0
211.0329,767.0
211.1053,646.0
211.1777,724.0
211.2502,673.0
211.3226,710.0
211.3951,673.0
211.4675,759.0
211.5399,674.0
211.6123,760.0
211.6847,657.0
211.7572,744.0
211.8296,673.0
211.902,775.0
211.9744,698.0
212.0468,746.0
212.1192,648.0
212.1917,726.0
212.264,675.0
212.3364,753.0
212.4088,751.0
212.4812,798.0
212.5536,711.0
212.626,777.0
212.6984,698.0
212.7708,731.0
212.8432,717.0
212.9155,775.0
212.9879,678.0
213.0603,761.0
213.1326,683.0
213.205,734.0
213.2774,685.0
213.3498,765.0
213.4221,690.0
213.4945,749.0
213.5668,669.0
213.6392,752.0
213.7115,708.0
213.7839,759.0
213.8562,718.0
213.9286,746.0
214.0009,690.0
214.0732,766.0
214.1456,717.0
214.2179,761.0
214.2903,687.0
214.3626,739.0
214.4349,675.0
214.5072,778.0
214.5796,690.0
214.6519,739.0
214.7242,723.0
214.7965,731.0
214.8688,695.0
214.9411,721.0
215.0134,683.0
215.0857,807.0
215.158,683.0
215.2303,793.0
215.3026,742.0
215.3749,773.0
215.4472,709.0
215.5195,761.0
215.5918,702.0
215.6641,795.0
215.7363,720.0
215.8086,796.0
215.8809,698.0
215.9532,717.0
216.0254,701.0
216.0977,734.0
216.17,686.0
216.2422,755.0
216.3145,698.0
216.3867,782.0
216.459,671.0
216.5313,757.0
216.6035,699.0
216.6758,763.0
216.748,693.0
216.8202,777.0
216.8925,714.0
216.9647,777.0
217.037,715.0
217.1092,780.0
217.1814,664.0
217.2536,733.0
217.3259,690.0
217.3981,773.0
217.4703,690.0
217.5425,718.0
217.6147,706.0
217.687,783.0
217.7592,748.0
217.8314,793.0
217.9035,679.0
217.9758,779.0
218.048,711.0
218.1201,788.0
218.1924,690.0
218.2645,831.0
218.3367,723.0
218.4089,769.0
218.4811,718.0
218.5533,783.0
218.6255,645.0
218.6976,773.0
218.7698,710.0
218.842,765.0
218.9142,709.0
218.9863,766.0
219.0585,724.0
219.1306,783.0
219.2028,728.0
219.2749,786.0
219.3471,745.0
219.4193,812.0
219.4914,687.0
219.5636,804.0
219.6357,717.0
219.7078,784.0
219.78,738.0
219.8521,783.0
219.9242,764.0
219.9964,828.0
220.0685,754.0
220.1406,819.0
220.2128,807.0
220.2849,812.0
220.357,714.0
220.4291,823.0
220.5012,715.0
220.5733,775.0
220.6454,762.0
220.7175,801.0
220.7896,737.0
220.8617,829.0
220.9338,733.0
221.0059,783.0
221.078,754.0
221.1501,778.0
221.2222,734.0
221.2943,820.0
221.3663,741.0
221.4384,813.0
221.5105,755.0
221.5826,793.0
221.6546,726.0
221.7267,800.0
221.7988,776.0
221.8708,821.0
221.9429,750.0
222.015,811.0
222.087,776.0
222.1591,782.0
222.2311,754.0
222.3032,845.0
222.3752,705.0
222.4473,800.0
222.5193,679.0
222.5913,773.0
222.6634,700.0
222.7354,816.0
222.8074,746.0
222.8795,821.0
222.9515,716.0
223.0235,796.0
223.0955,692.0
223.1675,759.0
223.2395,764.0
223.3116,804.0
223.3836,694.0
223.4556,848.0
223.5276,737.0
223.5996,840.0
223.6716,754.0
223.7436,775.0
223.8156,754.0
223.8876,802.0
223.9595,748.0
224.0315,761.0
224.1035,757.0
224.1755,787.0
224.2475,747.0
224.3195,824.0
224.3914,792.0
224.4634,882.0
224.5354,735.0
224.6073,817.0
224.6793,726.0
224.7512,816.0
224.8232,715.0
224.8952,847.0
224.9671,742.0
225.0391,823.0
225.111,766.0
225.1829,837.0
225.2549,777.0
225.3268,833.0
225.3988,749.0
225.4707,843.0
225.5426,808.0
225.6146,832.0
225.6865,780.0
225.7584,844.0
225.8303,761.0
225.9022,858.0
225.9742,796.0
226.0461,810.0
226.118,760.0
226.1899,878.0
226.2618,751.0
226.3337,876.0
226.4056,785.0
226.4775,866.0
226.5494,809.0
226.6213,823.0
226.6932,774.0
226.7651,832.0
226.8369,761.0
226.9088,844.0
226.9807,759.0
227.0526,845.0
227.1245,754.0
227.1963,822.0
227.2682,780.0
227.3401,831.0
227.4119,766.0
227.4838,845.0
227.5556,771.0
227.6275,824.0
227.6993,773.0
227.7712,825.0
227.8431,790.0
227.9149,815.0
227.9867,744.0
228.0586,790.0
228.1304,718.0
228.2023,849.0
228.2741,767.0
228.3459,846.0
228.4177,733.0
228.4896,837.0
228.5614,740.0
228.6332,795.0
228.705,765.0
228.7768,850.0
228.8486,750.0
228.9205,886.0
228.9923,779.0
229.0641,862.0
229.1359,799.0
229.2077,833.0
229.2794,795.0
229.3513,945.0
229.423,897.0
229.4948,1061.0
229.5666,1058.0
229.6384,1171.0
229.7102,1094.0
229.782,1034.0
229.8537,850.0
229.9255,839.0
229.9973,791.0
230.069,833.0
230.1408,725.0
230.2126,829.0
230.2843,767.0
230.3561,813.0
230.4278,710.0
230.4996,720.0
230.5713,722.0
230.6431,823.0
230.7148,746.0
230.7866,769.0
230.8583,730.0
230.93,749.0
231.0018,695.0
231.0735,777.0
231.1452,672.0
231.2169,817.0
231.2887,696.0
231.3604,835.0
231.4321,746.0
231.5038,726.0
231.5755,762.0
231.6472,800.0
231.7189,713.0
231.7906,785.0
231.8624,709.0
231.9341,819.0
232.0057,740.0
232.0774,820.0
232.1491,720.0
232.2208,822.0
232.2925,721.0
232.3642,808.0
232.4359,738.0
232.5075,844.0
232.5792,705.0
232.6509,820.0
232.7225,710.0
232.7942,805.0
232.8659,714.0
232.9375,808.0
233.0092,720.0
233.0809,837.0
233.1525,770.0
233.2242,773.0
233.2958,736.0
233.3675,780.0
233.4391,738.0
233.5107,805.0
233.5824,698.0
233.654,786.0
233.7256,744.0
233.7973,777.0
233.8689,722.0
233.9405,811.0
234.0121,759.0
234.0838,758.0
234.1554,710.0
234.227,817.0
234.2986,677.0
234.3702,775.0
234.4418,713.0
234.5134,825.0
234.585,766.0
234.6566,804.0
234.7282,701.0
234.7998,782.0
234.8714,734.0
234.943,761.0
235.0146,692.0
235.0862,778.0
235.1577,777.0
235.2293,787.0
235.3009,734.0
235.3725,780.0
235.444,747.0
235.5156,816.0
235.5872,673.0
235.6587,803.0
235.7303,722.0
235.8018,773.0
235.8734,748.0
235.9449,806.0
236.0165,719.0
236.088,799.0
236.1596,746.0
236.2311,790.0
236.3026,791.0
236.3742,819.0
236.4457,725.0
236.5172,775.0
236.5887,721.0
236.6603,787.0
236.7318,707.0
236.8033,836.0
236.8748,739.0
236.9464,814.0
237.0179,731.0
237.0894,817.0
237.1609,734.0
237.2324,819.0
237.3039,737.0
237.3754,791.0
237.4469,744.0
237.5184,827.0
237.5898,705.0
237.6613,824.0
237.7328,743.0
237.8043,798.0
237.8758,763.0
237.9472,810.0
238.0187,700.0
238.0902,839.0
238.1617,753.0
238.2331,817.0
238.3046,747.0
238.376,830.0
238.4475,763.0
238.519,790.0
238.5904,776.0
238.6618,793.0
238.7333,771.0
238.8047,851.0
238.8762,727.0
238.9476,838.0
239.0191,788.0
239.0905,833.0
239.1619,761.0
239.2334,859.0
239.3048,743.0
239.3762,852.0
239.4476,788.0
239.519,822.0
239.5904,805.0
239.6619,843.0
239.7333,744.0
239.8047,870.0
239.8761,739.0
239.9475,884.0
240.0189,717.0
240.0903,890.0
240.1617,789.0
240.233,825.0
240.3044,734.0
240.3758,844.0
240.4472,745.0
240.5186,818.0
240.59,780.0
240.6613,789.0
240.7327,780.0
240.8041,812.0
240.8754,737.0
240.9468,782.0
241.0181,716.0
241.0895,802.0
241.1609,754.0
241.2322,832.0
241.3036,709.0
241.3749,888.0
241.4462,779.0
241.5176,819.0
241.5889,760.0
241.6602,838.0
241.7316,690.0
241.8029,823.0
241.8743,723.0
241.9456,826.0
242.0169,755.0
242.0882,831.0
242.1595,795.0
242.2309,791.0
242.3022,765.0
242.3735,827.0
242.4448,747.0
242.5161,797.0
242.5874,783.0
242.6587,812.0
242.73,743.0
242.8013,839.0
242.8726,760.0
242.9438,841.0
243.0151,760.0
243.0864,833.0
243.1577,723.0
243.229,826.0
243.3002,790.0
243.3715,820.0
243.4428,766.0
243.5141,807.0
243.5853,759.0
243.6566,871.0
243.7278,714.0
243.7991,799.0
243.8703,725.0
243.9416,847.0
244.0128,735.0
244.0841,847.0
244.1553,739.0
244.2266,856.0
244.2978,729.0
244.369,863.0
244.4402,763.0
244.5115,797.0
244.5827,752.0
244.6539,826.0
244.7251,817.0
244.7964,785.0
244.8676,764.0
244.9388,880.0
245.01,755.0
245.0812,842.0
245.1524,772.0
245.2236,838.0
245.2948,778.0
245.366,823.0
245.4372,725.0
245.5084,802.0
245.5796,735.0
245.6507,777.0
245.7219,763.0
245.7931,820.0
245.8643,745.0
245.9355,783.0
246.0066,724.0
246.0778,803.0
246.149,728.0
246.2201,774.0
246.2913,743.0
246.3624,798.0
246.4336,673.0
246.5047,850.0
246.5759,721.0
246.647,805.0
246.7182,735.0
246.7893,850.0
246.8605,767.0
246.9316,836.0
247.0027,692.0
247.0739,791.0
247.145,727.0
247.2161,783.0
247.2872,722.0
247.3584,804.0
247.4295,759.0
247.5006,855.0
247.5717,751.0
247.6428,865.0
247.7139,884.0
247.785,997.0
247.8561,927.0
247.9272,1085.0
247.9983,948.0
248.0694,990.0
248.1405,840.0
248.2116,887.0
248.2827,790.0
248.3537,852.0
248.4248,725.0
248.4959,816.0
248.5669,773.0
248.638,827.0
248.7091,712.0
248.7802,824.0
248.8512,730.0
248.9223,832.0
248.9933,751.0
249.0644,782.0
249.1354,748.0
249.2065,813.0
249.2775,748.0
249.3486,825.0
249.4196,705.0
249.4906,810.0
249.5617,738.0
249.6327,814.0
249.7037,730.0
249.7747,840.0
249.8458,715.0
249.9168,879.0
249.9878,729.0
250.0588,825.0
250.1298,754.0
250.2009,809.0
250.2719,755.0
250.3429,858.0
250.4138,738.0
250.4849,807.0
250.5558,744.0
250.6268,855.0
250.6978,783.0
250.7688,837.0
250.8398,745.0
250.9108,906.0
250.9818,835.0
251.0527,909.0
251.1237,848.0
251.1947,936.0
251.2657,859.0
251.3366,865.0
251.4076,762.0
251.4785,826.0
251.5495,766.0
251.6205,813.0
251.6914,774.0
251.7623,883.0
251.8333,797.0
251.9042,823.0
251.9752,764.0
252.0461,847.0
252.1171,741.0
252.188,774.0
252.2589,715.0
252.3298,822.0
252.4008,757.0
252.4717,842.0
252.5426,725.0
252.6135,795.0
252.6844,749.0
252.7553,808.0
252.8262,749.0
252.8971,814.0
252.9681,737.0
253.039,830.0
253.1098,744.0
253.1808,836.0
253.2516,715.0
253.3225,810.0
253.3934,739.0
253.4643,770.0
253.5352,680.0
253.606,805.0
253.6769,725.0
253.7478,845.0
253.8187,791.0
253.8895,832.0
253.9604,752.0
254.0312,842.0
254.1021,708.0
254.173,813.0
254.2438,708.0
254.3147,850.0
254.3855,761.0
254.4563,808.0
254.5272,730.0
254.598,848.0
254.6689,765.0
254.7397,786.0
254.8105,750.0
254.8813,817.0
254.9522,744.0
255.023,830.0
255.0938,721.0
255.1646,813.0
255.2354,740.0
255.3062,834.0
255.3771,685.0
255.4479,850.0
255.5187,758.0
255.5894,790.0
255.6603,775.0
255.731,858.0
255.8018,733.0
255.8726,865.0
255.9434,723.0
256.0142,803.0
256.085,687.0
256.1558,842.0
256.2265,714.0
256.2973,851.0
256.3681,725.0
256.4388,823.0
256.5096,701.0
256.5804,827.0
256.6511,727.0
256.7219,878.0
256.7926,757.0
256.8634,824.0
256.9341,755.0
257.0049,841.0
257.0756,743.0
257.1463,804.0
257.2171,746.0
257.2878,839.0
257.3585,724.0
257.4292,809.0
257.5,726.0
257.5707,781.0
257.6414,761.0
257.7122,782.0
257.7828,718.0
257.8535,815.0
257.9243,744.0
257.995,834.0
258.0657,733.0
258.1364,813.0
258.2071,735.0
258.2777,820.0
258.3484,745.0
258.4191,836.0
258.4898,730.0
258.5605,811.0
258.6312,748.0
258.7018,796.0
258.7725,728.0
258.8432,763.0
258.9139,695.0
258.9845,760.0
259.0552,662.0
259.1259,810.0
259.1965,711.0
259.2672,799.0
259.3378,724.0
259.4085,801.0
259.4791,697.0
259.5497,759.0
259.6204,697.0
259.691,842.0
259.7617,706.0
259.8323,794.0
259.9029,751.0
259.9735,824.0
260.0442,733.0
260.1147,773.0
260.1854,739.0
260.256,825.0
260.3267,696.0
260.3972,804.0
260.4678,736.0
260.5384,787.0
260.6091,730.0
260.6796,870.0
260.7502,716.0
260.8208,766.0
260.8914,685.0
260.962,817.0
261.0326,737.0
261.1032,752.0
261.1737,715.0
261.2444,804.0
261.3149,758.0
261.3854,808.0
261.456,730.0
261.5266,873.0
261.5971,748.0
261.6677,845.0
261.7383,756.0
261.8088,839.0
261.8794,710.0
261.9499,804.0
262.0205,750.0
262.091,828.0
262.1615,721.0
262.2321,829.0
262.3026,800.0
262.3731,831.0
262.4437,728.0
262.5142,810.0
262.5847,764.0
262.6552,826.0
262.7257,765.0
262.7962,858.0
262.8668,773.0
262.9373,836.0
263.0078,729.0
263.0783,820.0
263.1488,819.0
263.2193,768.0
263.2898,754.0
263.3603,864.0
263.4307,776.0
263.5012,871.0
263.5717,806.0
263.6422,805.0
263.7127,810.0
263.7831,884.0
263.8536,803.0
263.9241,865.0
263.9945,766.0
264.065,861.0
264.1354,740.0
264.2059,825.0
264.2764,740.0
264.3468,801.0
264.4173,704.0
264.4877,838.0
264.5581,720.0
264.6286,834.0
264.699,756.0
264.7694,814.0
264.8399,769.0
264.9103,812.0
264.9807,755.0
265.0511,834.0
265.1216,693.0
265.192,826.0
265.2625,702.0
265.3328,817.0
265.4032,729.0
265.4736,796.0
265.5441,765.0
265.6144,813.0
265.6848,666.0
265.7552,780.0
265.8256,702.0
265.896,766.0
265.9664,706.0
266.0368,797.0
266.1071,718.0
266.1775,773.0
266.2479,737.0
266.3183,765.0
266.3886,716.0
266.459,775.0
266.5294,718.0
266.5998,840.0
266.6701,726.0
266.7404,806.0
266.8108,751.0
266.8812,835.0
266.9515,748.0
267.0219,841.0
267.0922,719.0
267.1625,827.0
267.2328,745.0
267.3032,834.0
267.3735,716.0
267.4438,767.0
267.5142,709.0
267.5845,812.0
267.6548,811.0
267.7251,796.0
267.7954,667.0
267.8657,792.0
267.936,702.0
268.0063,833.0
268.0766,692.0
268.1469,807.0
268.2172,718.0
268.2875,791.0
268.3578,712.0
268.4281,782.0
268.4984,749.0
268.5686,777.0
268.6389,703.0
268.7092,748.0
268.7794,751.0
268.8498,778.0
268.92,744.0
268.9902,829.0
269.0605,704.0
269.1308,787.0
269.201,763.0
269.2713,758.0
269.3415,708.0
269.4118,812.0
269.482,709.0
269.5523,809.0
269.6225,699.0
269.6927,802.0
269.7629,708.0
269.8332,748.0
269.9034,708.0
269.9736,787.0
270.0439,717.0
270.114,790.0
270.1843,774.0
270.2545,770.0
270.3247,733.0
270.3949,762.0
270.4651,719.0
270.5353,821.0
270.6055,721.0
270.6757,792.0
270.7459,757.0
270.8161,813.0
270.8863,728.0
270.9564,780.0
271.0266,752.0
271.0968,834.0
271.167,740.0
271.2371,828.0
271.3073,758.0
271.3775,812.0
271.4476,733.0
271.5178,824.0
271.588,778.0
271.6581,793.0
271.7282,770.0
271.7984,868.0
271.8685,716.0
271.9387,795.0
272.0088,690.0
272.0789,851.0
272.1491,756.0
272.2192,852.0
272.2893,755.0
272.3595,823.0
272.4296,767.0
272.4997,846.0
272.5698,722.0
272.64,857.0
272.7101,775.0
272.7802,815.0
272.8503,767.0
272.9204,855.0
272.9904,762.0
273.0605,869.0
273.1306,737.0
273.2007,831.0
273.2708,697.0
273.3409,853.0
273.411,738.0
273.481,782.0
273.5511,705.0
273.6212,864.0
273.6913,768.0
273.7614,857.0
273.8314,795.0
273.9015,820.0
273.9715,796.0
274.0416,830.0
274.1116,766.0
274.1817,881.0
274.2517,734.0
274.3217,886.0
274.3918,769.0
274.4619,867.0
274.5319,794.0
274.602,873.0
274.6719,817.0
274.742,846.0
274.812,839.0
274.882,847.0
274.952,742.0
275.0221,876.0
275.0921,747.0
275.1621,821.0
275.2321,769.0
275.3021,823.0
275.3721,752.0
275.4421,827.0
275.5121,754.0
275.5821,862.0
275.6521,773.0
275.722,854.0
275.792,779.0
275.862,815.0
275.932,723.0
276.002,794.0
276.0719,743.0
276.1418,819.0
276.2119,741.0
276.2818,887.0
276.3517,757.0
276.4218,849.0
276.4917,779.0
276.5616,812.0
276.6316,783.0
276.7015,864.0
276.7715,758.0
276.8414,803.0
276.9113,762.0
276.9813,825.0
277.0512,726.0
277.1211,817.0
277.191,777.0
277.261,799.0
277.3309,734.0
277.4008,845.0
277.4707,790.0
277.5406,834.0
277.6105,775.0
277.6804,795.0
277.7503,744.0
277.8202,807.0
277.8901,761.0
277.96,827.0
278.0299,739.0
278.0998,834.0
278.1697,725.0
278.2396,792.0
278.3094,737.0
278.3793,851.0
278.4492,721.0
278.519,776.0
278.5889,782.0
278.6588,832.0
278.7286,747.0
278.7985,826.0
278.8683,792.0
278.9382,823.0
279.0081,750.0
279.0779,815.0
279.1477,753.0
279.2176,866.0
279.2874,793.0
279.3572,855.0
279.4271,745.0
279.4969,876.0
279.5667,763.0
279.6365,832.0
279.7063,781.0
279.7762,820.0
279.846,772.0
279.9158,865.0
279.9856,806.0
280.0554,866.0
280.1252,818.0
280.195,866.0
280.2648,788.0
280.3346,851.0
280.4044,767.0
280.4742,883.0
280.544,775.0
280.6137,836.0
280.6835,821.0
280.7533,851.0
280.8231,745.0
280.8928,837.0
280.9626,792.0
281.0323,854.0
281.1021,799.0
281.1719,878.0
281.2416,798.0
281.3114,892.0
281.3811,787.0
281.4509,859.0
281.5206,761.0
281.5904,897.0
281.6601,784.0
281.7299,915.0
281.7996,797.0
281.8693,878.0
281.939,782.0
282.0088,860.0
282.0784,739.0
282.1482,864.0
282.2179,769.0
282.2876,807.0
282.3573,802.0
282.427,839.0
282.4967,792.0
282.5664,832.0
282.6361,821.0
282.7058,837.0
282.7755,783.0
282.8452,844.0
282.9149,806.0
282.9845,878.0
283.0542,798.0
283.1239,857.0
283.1936,808.0
283.2632,873.0
283.3329,775.0
283.4026,861.0
283.4722,806.0
283.5419,926.0
283.6115,782.0
283.6812,901.0
283.7508,818.0
283.8205,883.0
283.8901,801.0
283.9597,849.0
284.0294,776.0
284.099,853.0
284.1686,757.0
284.2383,910.0
284.3079,760.0
284.3775,806.0
284.4471,772.0
284.5168,870.0
284.5864,733.0
284.656,840.0
284.7256,793.0
284.7952,820.0
284.8648,749.0
284.9344,866.0
285.004,800.0
285.0736,874.0
285.1432,748.0
285.2128,868.0
285.2823,755.0
285.3519,846.0
285.4215,763.0
285.4911,848.0
285.5606,800.0
285.6302,871.0
285.6998,771.0
285.7693,841.0
285.8389,774.0
285.9084,816.0
285.978,777.0
286.0475,789.0
286.1171,744.0
286.1866,823.0
286.2562,736.0
286.3257,858.0
286.3952,786.0
286.4648,848.0
286.5343,775.0
286.6039,820.0
286.6733,729.0
286.7429,847.0
286.8124,738.0
286.8819,837.0
286.9514,760.0
287.0209,848.0
287.0904,685.0
287.1599,863.0
287.2294,788.0
287.299,850.0
287.3684,742.0
287.4379,880.0
287.5074,743.0
287.5769,852.0
287.6464,775.0
287.7159,861.0
287.7853,786.0
287.8548,869.0
287.9243,786.0
287.9937,831.0
288.0632,802.0
288.1327,849.0
288.2021,758.0
288.2716,815.0
288.341,777.0
288.4105,839.0
288.4799,756.0
288.5493,837.0
288.6188,743.0
288.6882,812.0
288.7577,767.0
288.8271,896.0
288.8965,758.0
288.9659,907.0
289.0354,722.0
289.1048,805.0
289.1742,752.0
289.2436,849.0
289.313,797.0
289.3824,841.0
289.4518,788.0
289.5212,882.0
289.5906,724.0
289.66,848.0
289.7294,754.0
289.7988,846.0
289.8682,763.0
289.9376,858.0
290.007,808.0
290.0764,867.0
290.1457,779.0
290.2151,867.0
290.2844,781.0
290.3538,880.0
290.4232,785.0
290.4925,827.0
290.5619,765.0
290.6312,856.0
290.7006,788.0
290.7699,904.0
290.8393,767.0
290.9086,870.0
290.978,834.0
291.0473,848.0
291.1166,750.0
291.1859,863.0
291.2553,747.0
291.3246,861.0
291.3939,792.0
291.4632,851.0
291.5325,789.0
291.6018,863.0
291.6712,778.0
291.7405,896.0
291.8098,777.0
291.8791,872.0
291.9484,777.0
292.0176,861.0
292.0869,782.0
292.1562,854.0
292.2255,800.0
292.2948,870.0
292.3641,800.0
292.4334,869.0
292.5026,821.0
292.5719,892.0
292.6412,807.0
292.7104,854.0
292.7797,832.0
292.8489,892.0
292.9182,776.0
292.9875,855.0
293.0567,771.0
293.1259,904.0
293.1952,786.0
293.2644,858.0
293.3336,749.0
293.4029,833.0
293.4721,778.0
293.5413,863.0
293.6106,817.0
293.6798,856.0
293.749,746.0
293.8182,879.0
293.8875,805.0
293.9566,878.0
294.0259,824.0
294.0951,855.0
294.1642,789.0
294.2334,856.0
294.3026,787.0
294.3718,868.0
294.441,821.0
294.5102,928.0
294.5794,796.0
294.6485,859.0
294.7177,722.0
294.7869,874.0
294.8561,750.0
294.9253,912.0
294.9944,719.0
295.0636,929.0
295.1327,803.0
295.2019,869.0
295.271,782.0
295.3402,821.0
295.4093,802.0
295.4785,839.0
295.5476,784.0
295.6168,889.0
295.6859,784.0
295.755,843.0
295.8241,751.0
295.8932,850.0
295.9623,830.0
296.0315,856.0
296.1006,799.0
296.1697,853.0
296.2388,801.0
296.3079,845.0
296.377,822.0
296.4461,885.0
296.5152,794.0
296.5843,856.0
296.6534,812.0
296.7225,857.0
296.7916,828.0
296.8606,873.0
296.9297,820.0
296.9988,870.0
297.0679,790.0
297.137,848.0
297.206,784.0
297.2751,876.0
297.3441,825.0
297.4132,853.0
297.4823,762.0
297.5513,868.0
297.6204,782.0
297.6894,848.0
297.7584,786.0
297.8275,889.0
297.8965,776.0
297.9655,915.0
298.0346,812.0
298.1036,845.0
298.1726,770.0
298.2417,848.0
298.3106,779.0
298.3797,894.0
298.4487,802.0
298.5177,841.0
298.5867,792.0
298.6557,851.0
298.7247,805.0
298.7937,925.0
298.8627,846.0
298.9317,886.0
299.0007,769.0
299.0696,858.0
299.1386,780.0
299.2076,877.0
299.2766,817.0
299.3456,876.0
299.4145,815.0
299.4835,846.0
299.5524,774.0
299.6214,822.0
299.6903,798.0
299.7593,911.0
299.8282,813.0
299.8972,887.0
299.9661,833.0
300.0351,841.0
300.104,789.0
300.173,878.0
300.2419,811.0
300.3108,902.0
300.3797,830.0
300.4487,904.0
300.5176,775.0
300.5865,879.0
300.6554,821.0
300.7243,895.0
300.7932,772.0
300.8621,899.0
300.931,829.0
300.9999,908.0
301.0688,829.0
301.1377,894.0
301.2066,799.0
301.2755,914.0
301.3444,780.0
301.4132,902.0
301.4821,805.0
301.551,895.0
301.6199,857.0
301.6887,900.0
301.7576,805.0
301.8265,904.0
301.8953,803.0
301.9642,876.0
302.033,806.0
302.1019,914.0
302.1707,818.0
302.2396,903.0
302.3084,828.0
302.3772,885.0
302.4461,845.0
302.5149,863.0
302.5837,825.0
302.6526,880.0
302.7214,780.0
302.7902,908.0
302.859,845.0
302.9278,882.0
302.9966,884.0
303.0654,896.0
303.1342,796.0
303.203,874.0
303.2718,829.0
303.3406,926.0
303.4094,832.0
303.4781,866.0
303.547,857.0
303.6158,882.0
303.6845,833.0
303.7533,910.0
303.8221,825.0
303.8908,944.0
303.9596,813.0
304.0284,896.0
304.0971,855.0
304.1659,914.0
304.2346,836.0
304.3034,858.0
304.3721,802.0
304.4409,865.0
304.5096,835.0
304.5784,906.0
304.6471,801.0
304.7158,905.0
304.7845,806.0
304.8533,865.0
304.922,809.0
304.9907,900.0
305.0594,824.0
305.1281,889.0
305.1969,808.0
305.2656,900.0
305.3343,788.0
305.403,882.0
305.4717,840.0
305.5403,890.0
305.609,780.0
305.6778,888.0
305.7464,779.0
305.8151,898.0
305.8838,795.0
305.9525,910.0
306.0211,818.0
306.0898,907.0
306.1585,791.0
306.2271,901.0
306.2958,811.0
306.3645,871.0
306.4331,795.0
306.5017,873.0
306.5704,830.0
306.6391,943.0
306.7077,807.0
306.7763,907.0
306.845,774.0
306.9136,889.0
306.9822,799.0
307.0508,909.0
307.1195,833.0
307.1881,883.0
307.2567,818.0
307.3253,869.0
307.3939,828.0
307.4625,898.0
307.5312,771.0
307.5998,923.0
307.6684,790.0
307.7369,888.0
307.8055,783.0
307.8741,927.0
307.9427,841.0
308.0113,881.0
308.0799,794.0
308.1484,827.0
308.217,793.0
308.2856,842.0
308.3542,794.0
308.4227,897.0
308.4913,819.0
308.5598,896.0
308.6284,755.0
308.6969,919.0
308.7655,784.0
308.834,891.0
308.9026,840.0
308.9711,855.0
309.0396,757.0
309.1082,868.0
309.1767,775.0
309.2452,884.0
309.3138,815.0
309.3823,902.0
309.4508,782.0
309.5193,909.0
309.5878,826.0
309.6563,897.0
309.7249,819.0
309.7933,899.0
309.8618,786.0
309.9303,887.0
309.9988,790.0
310.0673,877.0
310.1358,805.0
310.2043,823.0
310.2728,831.0
310.3412,875.0
310.4097,780.0
310.4781,848.0
310.5466,841.0
310.6151,855.0
310.6836,855.0
310.752,870.0
310.8205,780.0
310.8889,886.0
310.9574,765.0
311.0258,865.0
311.0943,795.0
311.1627,936.0
311.2311,805.0
311.2996,826.0
311.368,816.0
311.4364,887.0
311.5049,782.0
311.5733,844.0
311.6417,765.0
311.7101,842.0
311.7785,789.0
311.8469,857.0
311.9153,832.0
311.9837,904.0
312.0521,805.0
312.1205,864.0
312.1889,784.0
312.2573,856.0
312.3257,780.0
312.3941,898.0
312.4624,796.0
312.5308,838.0
312.5992,770.0
312.6675,838.0
312.7359,779.0
312.8043,862.0
312.8727,767.0
312.941,873.0
313.0093,787.0
313.0777,847.0
313.1461,765.0
313.2144,843.0
313.2827,766.0
313.3511,823.0
313.4194,741.0
313.4877,826.0
313.5561,715.0
313.6244,839.0
313.6927,747.0
313.761,826.0
313.8294,699.0
313.8977,801.0
313.966,707.0
314.0343,853.0
314.1026,719.0
314.1709,821.0
314.2392,758.0
314.3075,851.0
314.3758,758.0
314.4441,853.0
314.5124,746.0
314.5806,851.0
314.6489,715.0
314.7172,907.0
314.7855,758.0
314.8537,837.0
314.922,761.0
314.9903,891.0
315.0585,771.0
315.1268,877.0
315.195,790.0
315.2633,846.0
315.3315,815.0
315.3998,897.0
315.468,782.0
315.5362,849.0
315.6045,769.0
315.6727,825.0
315.7409,800.0
315.8092,871.0
315.8774,792.0
315.9456,868.0
316.0138,778.0
316.082,830.0
316.1502,769.0
316.2184,906.0
316.2867,810.0
316.3549,877.0
316.423,789.0
316.4912,898.0
316.5594,857.0
316.6276,895.0
316.6958,794.0
316.764,886.0
316.8322,793.0
316.9003,892.0
316.9685,799.0
317.0367,893.0
317.1049,859.0
317.173,900.0
317.2411,878.0
317.3093,917.0
317.3774,778.0
317.4456,879.0
317.5137,794.0
317.5819,897.0
317.65,846.0
317.7182,887.0
317.7863,799.0
317.8545,899.0
317.9225,844.0
317.9907,883.0
318.0588,807.0
318.1269,917.0
318.195,859.0
318.2631,872.0
318.3312,845.0
318.3994,921.0
318.4675,798.0
318.5355,887.0
318.6036,832.0
318.6717,900.0
318.7398,836.0
318.8079,865.0
318.876,829.0
318.9441,878.0
319.0121,816.0
319.0802,904.0
319.1483,826.0
319.2164,886.0
319.2844,781.0
319.3525,894.0
319.4205,812.0
319.4886,931.0
319.5566,875.0
319.6247,898.0
319.6927,819.0
319.7608,920.0
319.8288,835.0
319.8968,917.0
319.9648,805.0
320.0329,905.0
320.1009,766.0
320.1689,889.0
320.237,808.0
320.305,902.0
320.373,866.0
320.441,905.0
320.509,842.0
320.577,898.0
320.645,863.0
320.713,865.0
320.781,830.0
320.849,871.0
320.917,809.0
320.985,889.0
321.0529,842.0
321.1209,929.0
321.1889,835.0
321.2568,904.0
321.3248,854.0
321.3928,905.0
321.4608,862.0
321.5287,877.0
321.5966,816.0
321.6646,887.0
321.7325,802.0
321.8005,907.0
321.8684,792.0
321.9364,922.0
322.0043,819.0
322.0722,919.0
322.1401,809.0
322.2081,944.0
322.276,827.0
322.344,899.0
322.4119,859.0
322.4797,888.0
322.5477,854.0
322.6156,907.0
322.6835,837.0
322.7514,909.0
322.8193,784.0
322.8871,897.0
322.955,849.0
323.0229,908.0
323.0908,846.0
323.1588,926.0
323.2266,824.0
323.2945,916.0
323.3623,820.0
323.4302,943.0
323.4981,855.0
323.5659,888.0
323.6338,848.0
323.7016,904.0
323.7695,839.0
323.8373,921.0
323.9052,820.0
323.973,944.0
324.0409,818.0
324.1087,931.0
324.1765,850.0
324.2444,936.0
324.3122,804.0
324.38,951.0
324.4479,823.0
324.5157,931.0
324.5834,872.0
324.6512,920.0
324.7191,879.0
324.7869,893.0
324.8547,857.0
324.9225,944.0
324.9903,852.0
325.058,963.0
325.1259,836.0
325.1936,912.0
325.2614,804.0
325.3292,870.0
325.397,847.0
325.4647,912.0
325.5325,824.0
325.6002,868.0
325.668,853.0
325.7358,921.0
325.8036,820.0
325.8713,922.0
325.939,812.0
326.0068,888.0
326.0745,824.0
326.1422,876.0
326.21,803.0
326.2777,926.0
326.3455,814.0
326.4132,960.0
326.4809,850.0
326.5486,969.0
326.6164,875.0
326.6841,911.0
326.7518,852.0
326.8195,929.0
326.8872,872.0
326.9549,967.0
327.0226,809.0
327.0903,916.0
327.158,842.0
327.2256,894.0
327.2933,859.0
327.361,940.0
327.4287,806.0
327.4964,931.0
327.5641,853.0
327.6317,927.0
327.6994,820.0
327.767,929.0
327.8347,821.0
327.9023,960.0
327.97,887.0
328.0376,916.0
328.1053,844.0
328.1729,910.0
328.2406,838.0
328.3082,881.0
328.3759,828.0
328.4435,924.0
328.5111,831.0
328.5787,919.0
328.6463,858.0
328.7139,944.0
328.7816,816.0
328.8492,921.0
328.9168,795.0
328.9843,923.0
329.052,802.0
329.1196,898.0
329.1872,796.0
329.2548,911.0
329.3224,821.0
329.3899,899.0
329.4575,829.0
329.5251,938.0
329.5927,843.0
329.6602,898.0
329.7278,853.0
329.7953,890.0
329.8629,805.0
329.9305,917.0
329.998,813.0
330.0656,900.0
330.1331,801.0
330.2007,908.0
330.2682,816.0
330.3358,880.0
330.4033,824.0
330.4708,892.0
330.5383,824.0
330.6059,898.0
330.6734,804.0
330.7409,874.0
330.8084,784.0
330.876,920.0
330.9435,813.0
331.011,860.0
331.0784,755.0
331.1459,940.0
331.2134,828.0
331.2809,890.0
331.3484,808.0
331.4159,843.0
331.4834,792.0
331.5508,882.0
331.6183,763.0
331.6858,854.0
331.7533,787.0
331.8207,870.0
331.8882,819.0
331.9557,919.0
332.0231,827.0
332.0906,881.0
332.1581,779.0
332.2255,869.0
332.2929,757.0
332.3604,879.0
332.4278,816.0
332.4952,859.0
332.5627,772.0
332.6301,882.0
332.6975,759.0
332.7649,890.0
332.8323,815.0
332.8997,868.0
332.9672,853.0
333.0346,885.0
333.102,803.0
333.1694,917.0
333.2368,826.0
333.3042,882.0
333.3716,754.0
333.439,931.0
333.5063,798.0
333.5737,945.0
333.6411,847.0
333.7085,893.0
333.7758,807.0
333.8432,923.0
333.9106,758.0
333.9779,861.0
334.0453,760.0
334.1126,949.0
334.18,859.0
334.2473,885.0
334.3147,858.0
334.382,848.0
334.4494,820.0
334.5167,917.0
334.584,824.0
334.6514,915.0
334.7187,796.0
334.786,918.0
334.8533,836.0
334.9206,878.0
334.9879,791.0
335.0553,900.0
335.1226,735.0
335.1899,876.0
335.2572,821.0
335.3245,883.0
335.3918,800.0
335.459,901.0
335.5263,852.0
335.5936,876.0
335.6609,869.0
335.7282,914.0
335.7954,788.0
335.8627,940.0
335.93,830.0
335.9973,912.0
336.0645,803.0
336.1318,860.0
336.199,818.0
336.2662,905.0
336.3335,820.0
336.4008,897.0
336.468,754.0
336.5352,931.0
336.6024,822.0
336.6697,912.0
336.7369,818.0
336.8041,867.0
336.8714,771.0
336.9386,871.0
337.0058,768.0
337.073,899.0
337.1402,811.0
337.2074,909.0
337.2746,815.0
337.3418,854.0
337.409,811.0
337.4762,839.0
337.5434,780.0
337.6106,865.0
337.6777,777.0
337.7449,921.0
337.8121,795.0
337.8792,848.0
337.9464,824.0
338.0135,856.0
338.0807,772.0
338.1479,909.0
338.2151,782.0
338.2822,890.0
338.3493,812.0
338.4165,842.0
338.4836,764.0
338.5508,931.0
338.6179,827.0
338.6851,886.0
338.7521,811.0
338.8193,898.0
338.8864,849.0
338.9535,871.0
339.0206,801.0
339.0878,857.0
339.1548,797.0
339.222,922.0
339.289,785.0
339.3561,926.0
339.4233,746.0
339.4904,904.0
339.5574,835.0
339.6245,890.0
339.6916,809.0
339.7587,889.0
339.8257,810.0
339.8929,875.0
339.9599,793.0
340.0269,864.0
340.094,786.0
340.1611,833.0
340.2281,767.0
340.2952,842.0
340.3622,756.0
340.4293,859.0
340.4963,752.0
340.5633,867.0
340.6304,781.0
340.6974,856.0
340.7645,775.0
340.8315,844.0
340.8985,791.0
340.9655,842.0
341.0325,786.0
341.0995,859.0
341.1665,814.0
341.2335,845.0
341.3005,759.0
341.3675,889.0
341.4345,747.0
341.5015,841.0
341.5685,778.0
341.6355,871.0
341.7025,792.0
341.7694,887.0
341.8364,818.0
341.9034,903.0
341.9704,845.0
342.0373,892.0
342.1043,753.0
342.1712,895.0
342.2382,783.0
342.3051,870.0
342.3721,816.0
342.4391,922.0
342.506,797.0
342.5729,887.0
342.6398,803.0
342.7068,860.0
342.7737,759.0
342.8406,864.0
342.9076,817.0
342.9745,853.0
343.0414,824.0
343.1083,847.0
343.1752,790.0
343.2421,862.0
343.309,798.0
343.3759,884.0
343.4428,825.0
343.5097,897.0
343.5766,837.0
343.6434,857.0
343.7104,796.0
343.7772,852.0
343.8441,824.0
343.9109,878.0
343.9778,812.0
344.0447,920.0
344.1116,798.0
344.1784,886.0
344.2453,743.0
344.3121,884.0
344.3789,790.0
344.4458,921.0
344.5127,799.0
344.5795,929.0
344.6463,808.0
344.7131,893.0
344.78,822.0
344.8468,925.0
344.9136,760.0
344.9805,932.0
345.0473,830.0
345.1141,903.0
345.1809,806.0
345.2477,898.0
345.3145,818.0
345.3813,885.0
345.4481,807.0
345.5149,903.0
345.5816,795.0
345.6484,913.0
345.7152,812.0
345.782,905.0
345.8488,815.0
345.9155,897.0
345.9823,792.0
346.049,852.0
346.1158,810.0
346.1826,881.0
346.2493,876.0
346.3161,902.0
346.3828,838.0
346.4496,933.0
346.5163,800.0
346.5831,852.0
346.6498,789.0
346.7165,907.0
346.7832,802.0
346.85,904.0
346.9167,794.0
346.9834,862.0
347.0501,769.0
347.1168,873.0
347.1835,844.0
347.2502,901.0
347.3169,809.0
347.3836,850.0
347.4503,822.0
347.517,916.0
347.5837,808.0
347.6504,898.0
347.717,823.0
347.7837,927.0
347.8504,848.0
347.9171,894.0
347.9837,805.0
348.0504,937.0
348.1171,823.0
348.1837,872.0
348.2504,849.0
348.317,930.0
348.3837,790.0
348.4503,883.0
348.5169,794.0
348.5836,920.0
348.6502,813.0
348.7169,891.0
348.7835,859.0
348.8501,917.0
348.9167,856.0
348.9833,930.0
349.0499,837.0
349.1165,911.0
349.1832,824.0
349.2498,912.0
349.3163,837.0
349.3829,862.0
349.4495,821.0
349.5161,894.0
349.5827,822.0
349.6493,942.0
349.7159,827.0
349.7824,918.0
349.849,813.0
349.9156,945.0
349.9821,823.0
350.0487,905.0
350.1153,865.0
350.1818,910.0
350.2484,856.0
350.3149,903.0
350.3814,816.0
350.448,902.0
350.5146,815.0
350.5811,904.0
350.6476,885.0
350.7141,918.0
350.7807,869.0
350.8472,933.0
350.9137,810.0
350.9802,928.0
351.0467,887.0
351.1132,908.0
351.1797,862.0
351.2462,891.0
351.3127,848.0
351.3792,941.0
351.4457,790.0
351.5122,931.0
351.5787,855.0
351.6451,934.0
351.7116,834.0
351.7781,973.0
351.8446,885.0
351.911,901.0
351.9775,851.0
352.044,967.0
352.1104,856.0
352.1769,986.0
352.2433,886.0
352.3098,939.0
352.3762,875.0
352.4427,930.0
352.5091,845.0
352.5755,933.0
352.642,837.0
352.7084,947.0
352.7748,851.0
352.8412,944.0
352.9077,866.0
352.9741,976.0
353.0405,881.0
353.1068,987.0
353.1732,834.0
353.2396,1001.0
353.306,896.0
353.3724,952.0
353.4388,889.0
353.5052,949.0
353.5716,882.0
353.638,954.0
353.7043,922.0
353.7707,1004.0
353.8371,930.0
353.9034,999.0
353.9698,913.0
354.0362,949.0
354.1025,940.0
354.1689,1005.0
354.2352,885.0
354.3016,1002.0
354.3679,954.0
354.4342,988.0
354.5005,930.0
354.5669,1034.0
354.6332,941.0
354.6996,1055.0
354.7659,928.0
354.8322,1025.0
354.8985,979.0
354.9648,1018.0
355.0311,929.0
355.0974,1052.0
355.1637,956.0
355.23,1041.0
355.2963,923.0
355.3625,1006.0
355.4289,950.0
355.4952,1044.0
355.5614,920.0
355.6277,1055.0
355.694,967.0
355.7603,1029.0
355.8265,956.0
355.8928,1050.0
355.959,947.0
356.0253,991.0
356.0916,938.0
356.1578,1030.0
356.224,925.0
356.2903,1039.0
356.3565,931.0
356.4228,1009.0
356.489,907.0
356.5552,976.0
356.6214,889.0
356.6876,987.0
356.7539,872.0
356.8201,1005.0
356.8863,936.0
356.9525,980.0
357.0187,897.0
357.0849,990.0
357.1511,884.0
357.2173,966.0
357.2835,864.0
357.3497,986.0
357.4158,869.0
357.482,1004.0
357.5482,915.0
357.6144,1002.0
357.6805,953.0
357.7467,1058.0
357.8128,958.0
357.879,1067.0
357.9452,1043.0
358.0114,1120.0
358.0775,1143.0
358.1436,1239.0
358.2097,1175.0
358.2759,1379.0
358.342,1344.0
358.4082,1355.0
358.4743,1295.0
358.5404,1329.0
358.6065,1155.0
358.6726,1116.0
358.7387,1073.0
358.8049,1125.0
358.871,1100.0
358.9371,1207.0
359.0032,998.0
359.0693,1016.0
359.1353,882.0
359.2014,878.0
359.2676,891.0
359.3336,913.0
359.3997,830.0
359.4658,957.0
359.5318,859.0
359.5979,911.0
359.664,808.0
359.7301,907.0
359.7961,856.0
359.8622,887.0
359.9282,815.0
359.9943,902.0
360.0603,783.0
360.1264,884.0
360.1924,823.0
360.2585,897.0
360.3244,827.0
360.3905,889.0
360.4565,768.0
360.5225,911.0
360.5885,862.0
360.6546,887.0
360.7206,784.0
360.7866,904.0
360.8526,803.0
360.9185,873.0
360.9846,809.0
361.0506,890.0
361.1165,794.0
361.1825,883.0
361.2485,800.0
361.3145,928.0
361.3805,831.0
361.4465,885.0
361.5124,815.0
361.5784,904.0
361.6443,802.0
361.7103,881.0
361.7762,840.0
361.8422,933.0
361.9082,794.0
361.9741,851.0
362.04,784.0
362.106,856.0
362.1719,816.0
362.2379,913.0
362.3038,779.0
362.3697,906.0
362.4356,786.0
362.5015,938.0
362.5675,824.0
362.6334,909.0
362.6993,861.0
362.7652,925.0
362.8311,807.0
362.8969,922.0
362.9629,832.0
363.0287,888.0
363.0947,832.0
363.1605,969.0
363.2264,859.0
363.2923,900.0
363.3582,848.0
363.424,856.0
363.4899,838.0
363.5557,921.0
363.6216,808.0
363.6874,862.0
363.7533,848.0
363.8191,921.0
363.885,780.0
363.9508,866.0
364.0167,789.0
364.0825,892.0
364.1483,796.0
364.2142,922.0
364.28,793.0
364.3458,912.0
364.4116,814.0
364.4774,896.0
364.5432,853.0
364.609,886.0
364.6748,804.0
364.7406,919.0
364.8065,782.0
364.8722,896.0
364.938,837.0
365.0038,898.0
365.0696,815.0
365.1354,911.0
365.2011,794.0
365.2669,890.0
365.3326,809.0
365.3984,877.0
365.4642,807.0
365.5299,931.0
365.5957,793.0
365.6614,908.0
365.7272,846.0
365.7929,907.0
365.8587,843.0
365.9244,926.0
365.9902,818.0
366.0559,943.0
366.1216,807.0
366.1873,885.0
366.253,799.0
366.3188,887.0
366.3845,817.0
366.4502,887.0
366.5159,808.0
366.5816,913.0
366.6473,855.0
366.713,858.0
366.7787,789.0
366.8444,892.0
366.91,786.0
366.9757,921.0
367.0414,831.0
367.1071,904.0
367.1727,830.0
367.2384,857.0
367.3041,840.0
367.3697,923.0
367.4354,754.0
367.501,895.0
367.5667,778.0
367.6323,884.0
367.698,823.0
367.7636,871.0
367.8292,823.0
367.8948,859.0
367.9605,792.0
368.0261,867.0
368.0918,767.0
368.1573,917.0
368.223,783.0
368.2885,896.0
368.3542,779.0
368.4198,843.0
368.4854,784.0
368.551,853.0
368.6165,752.0
368.6821,893.0
368.7477,811.0
368.8133,850.0
368.8789,800.0
368.9445,852.0
369.01,802.0
369.0756,853.0
369.1411,811.0
369.2067,878.0
369.2723,768.0
369.3379,839.0
369.4034,788.0
369.4689,847.0
369.5345,775.0
369.6,878.0
369.6656,755.0
369.7311,860.0
369.7966,745.0
369.8622,891.0
369.9277,795.0
369.9932,877.0
370.0587,772.0
370.1242,830.0
370.1897,765.0
370.2552,853.0
370.3207,766.0
370.3862,820.0
370.4517,779.0
370.5172,898.0
370.5827,740.0
370.6482,875.0
370.7136,782.0
370.7791,843.0
370.8446,793.0
370.9101,848.0
370.9756,719.0
371.041,865.0
371.1064,723.0
371.1719,828.0
371.2373,784.0
371.3028,899.0
371.3683,776.0
371.4337,855.0
371.4991,816.0
371.5646,902.0
371.63,791.0
371.6954,842.0
371.7608,783.0
371.8263,882.0
371.8917,793.0
371.9571,867.0
372.0225,767.0
372.0879,891.0
372.1533,767.0
372.2187,908.0
372.2841,797.0
372.3495,897.0
372.4149,819.0
372.4803,875.0
372.5457,764.0
372.611,928.0
372.6764,778.0
372.7418,899.0
372.8071,807.0
372.8725,932.0
372.9379,780.0
373.0032,877.0
373.0686,811.0
373.1339,885.0
373.1992,786.0
373.2646,962.0
373.3299,836.0
373.3953,923.0
373.4606,806.0
373.5259,925.0
373.5912,823.0
373.6566,900.0
373.7219,825.0
373.7872,909.0
373.8525,844.0
373.9178,917.0
373.9831,838.0
374.0484,904.0
374.1137,826.0
374.179,896.0
374.2443,804.0
374.3096,973.0
374.3749,824.0
374.4401,965.0
374.5054,876.0
374.5706,910.0
374.636,840.0
374.7012,918.0
374.7665,850.0
374.8318,894.0
374.897,859.0
374.9622,878.0
375.0275,803.0
375.0927,877.0
375.158,855.0
375.2232,897.0
375.2885,871.0
375.3537,883.0
375.4189,836.0
375.4841,931.0
375.5493,844.0
375.6145,889.0
375.6797,835.0
375.745,964.0
375.8101,799.0
375.8754,954.0
375.9406,862.0
376.0057,969.0
376.071,850.0
376.1361,953.0
376.2013,871.0
376.2665,961.0
376.3317,822.0
376.3969,923.0
376.462,838.0
376.5272,965.0
376.5923,874.0
376.6575,925.0
376.7226,857.0
376.7878,951.0
376.8529,866.0
376.9181,971.0
376.9832,876.0
377.0483,878.0
377.1135,879.0
377.1786,967.0
377.2437,841.0
377.3089,986.0
377.374,873.0
377.4391,937.0
377.5042,911.0
377.5693,920.0
377.6344,917.0
377.6995,972.0
377.7646,864.0
377.8297,1011.0
377.8948,948.0
377.9599,952.0
378.025,930.0
378.09,976.0
378.1551,903.0
378.2202,970.0
378.2852,908.0
378.3503,1013.0
378.4154,896.0
378.4804,1055.0
378.5455,963.0
378.6105,1028.0
378.6755,996.0
378.7406,1014.0
378.8057,997.0
378.8707,1031.0
378.9357,938.0
379.0008,1082.0
379.0658,955.0
379.1308,1068.0
379.1958,987.0
379.2609,1021.0
379.3259,1015.0
379.3908,1127.0
379.4558,1014.0
379.5208,1091.0
379.5858,1024.0
379.6509,1079.0
379.7159,1051.0
379.7808,1117.0
379.8458,1061.0
379.9108,1152.0
379.9758,1021.0
380.0407,1147.0
380.1057,1068.0
380.1707,1146.0
380.2356,1094.0
380.3006,1148.0
380.3655,1147.0
380.4305,1176.0
380.4955,1067.0
380.5604,1193.0
380.6253,1090.0
380.6902,1225.0
380.7552,1108.0
380.8201,1191.0
380.885,1164.0
380.95,1187.0
381.0149,1160.0
381.0798,1218.0
381.1447,1103.0
381.2096,1318.0
381.2745,1165.0
381.3394,1276.0
381.4043,1243.0
381.4692,1293.0
381.5341,1263.0
381.5989,1272.0
381.6638,1222.0
381.7287,1311.0
381.7936,1246.0
381.8585,1333.0
381.9233,1256.0
381.9882,1361.0
382.053,1325.0
382.1179,1361.0
382.1828,1238.0
382.2476,1402.0
382.3124,1266.0
382.3773,1416.0
382.4421,1396.0
382.507,1441.0
382.5718,1287.0
382.6366,1469.0
382.7014,1328.0
382.7663,1480.0
382.8311,1322.0
382.8959,1487.0
382.9607,1316.0
383.0255,1484.0
383.0903,1416.0
383.1551,1531.0
383.2199,1417.0
383.2847,1472.0
383.3495,1424.0
383.4143,1492.0
383.479,1375.0
383.5438,1506.0
383.6086,1384.0
383.6734,1476.0
383.7381,1380.0
383.8029,1485.0
383.8676,1377.0
383.9324,1516.0
383.9972,1440.0
384.0619,1514.0
384.1266,1438.0
384.1914,1552.0
384.2562,1448.0
384.3209,1540.0
384.3856,1503.0
384.4503,1685.0
384.515,1600.0
384.5797,1692.0
384.6445,1614.0
384.7092,1811.0
384.7739,1760.0
384.8386,1882.0
384.9033,1936.0
384.968,2005.0
385.0327,1867.0
385.0974,1940.0
385.162,1861.0
385.2267,1930.0
385.2914,1890.0
385.3561,2015.0
385.4208,1918.0
385.4854,1760.0
385.5501,1709.0
385.6147,1803.0
385.6794,1725.0
385.7441,1861.0
385.8087,1920.0
385.8734,2050.0
385.938,2019.0
386.0027,2188.0
386.0673,2192.0
386.1319,2000.0
386.1966,1763.0
386.2612,1707.0
386.3258,1580.0
386.3904,1718.0
386.455,1654.0
386.5196,1831.0
386.5843,1895.0
386.6489,2066.0
386.7135,2033.0
386.778,2225.0
386.8426,2299.0
386.9072,2529.0
386.9718,2469.0
387.0364,2610.0
387.101,2174.0
387.1655,1755.0
387.2301,1464.0
387.2946,1468.0
387.3593,1337.0
387.4238,1459.0
387.4884,1417.0
387.5529,1652.0
387.6175,1548.0
387.682,1812.0
387.7466,1847.0
387.8111,2074.0
387.8756,2138.0
387.9402,2496.0
388.0047,2670.0
388.0692,2851.0
388.1337,2857.0
388.1982,3041.0
388.2628,2690.0
388.3272,2019.0
388.3918,1335.0
388.4563,1174.0
388.5208,928.0
388.5852,989.0
388.6497,849.0
388.7142,929.0
388.7787,865.0
388.8432,920.0
388.9077,850.0
388.9721,882.0
389.0366,776.0
389.1011,906.0
389.1655,868.0
389.23,925.0
389.2944,829.0
389.3589,896.0
389.4233,815.0
389.4878,918.0
389.5522,822.0
389.6167,948.0
389.6811,814.0
389.7455,913.0
389.8099,813.0
389.8744,875.0
389.9388,852.0
390.0032,925.0
390.0676,844.0
390.132,926.0
390.1964,811.0
390.2608,926.0
390.3252,844.0
390.3896,904.0
390.454,859.0
390.5184,947.0
390.5827,825.0
390.6471,906.0
390.7115,840.0
390.7759,935.0
390.8402,841.0
390.9046,932.0
390.9689,853.0
391.0333,892.0
391.0977,863.0
391.162,932.0
391.2264,834.0
391.2907,890.0
391.355,906.0
391.4193,903.0
391.4837,832.0
391.548,937.0
391.6123,809.0
391.6767,925.0
391.741,821.0
391.8053,936.0
391.8696,862.0
391.9339,900.0
391.9982,870.0
392.0625,914.0
392.1268,892.0
392.1911,969.0
392.2553,832.0
392.3196,955.0
392.3839,845.0
392.4482,918.0
392.5125,872.0
392.5767,978.0
392.641,873.0
392.7053,894.0
392.7695,841.0
392.8338,986.0
392.898,909.0
392.9622,948.0
393.0265,849.0
393.0908,942.0
393.155,891.0
393.2192,1010.0
393.2834,960.0
393.3477,1022.0
393.4118,905.0
393.476,927.0
393.5403,815.0
393.6045,936.0
393.6687,833.0
393.7329,908.0
393.7971,843.0
393.8613,941.0
393.9255,840.0
393.9897,964.0
394.0539,820.0
394.118,929.0
394.1822,796.0
394.2464,964.0
394.3105,836.0
394.3747,922.0
394.4389,864.0
394.503,928.0
394.5672,824.0
394.6313,908.0
394.6954,869.0
394.7596,894.0
394.8238,848.0
394.8879,896.0
394.952,842.0
395.0161,858.0
395.0803,869.0
395.1444,932.0
395.2085,808.0
395.2726,883.0
395.3367,855.0
395.4008,944.0
395.4649,854.0
395.529,874.0
395.5931,823.0
395.6572,947.0
395.7213,802.0
395.7854,921.0
395.8495,807.0
395.9135,903.0
395.9776,801.0
396.0417,915.0
396.1057,826.0
396.1698,905.0
396.2339,795.0
396.2979,942.0
396.362,839.0
396.426,905.0
396.4901,854.0
396.5541,861.0
396.6181,873.0
396.6821,909.0
396.7462,868.0
396.8102,923.0
396.8743,862.0
396.9383,906.0
397.0023,836.0
397.0662,894.0
397.1302,811.0
397.1943,849.0
397.2583,799.0
397.3223,862.0
397.3862,827.0
397.4502,891.0
397.5142,790.0
397.5782,871.0
397.6422,819.0
397.7061,855.0
397.7701,817.0
397.8341,893.0
397.898,791.0
397.962,949.0
398.0259,855.0
398.0899,892.0
398.1538,774.0
398.2178,893.0
398.2817,788.0
398.3456,893.0
398.4096,784.0
398.4735,875.0
398.5374,834.0
398.6013,898.0
398.6653,834.0
398.7292,866.0
398.7931,801.0
398.857,899.0
398.9209,799.0
398.9848,911.0
399.0487,851.0
399.1125,886.0
399.1765,777.0
399.2404,889.0
399.3042,823.0
399.3681,919.0
399.432,809.0
399.4958,920.0
399.5597,776.0
399.6236,921.0
399.6875,831.0
399.7513,908.0
399.8152,866.0
399.879,916.0
399.9428,840.0
400.0067,901.0
400.0705,838.0
400.1343,939.0
400.1982,832.0
400.262,910.0
400.3258,798.0
400.3896,877.0
400.4534,799.0
400.5172,898.0
400.581,817.0
400.6448,945.0
400.7086,838.0
400.7724,905.0
400.8362,799.0
400.9,916.0
400.9638,796.0
401.0276,887.0
401.0913,860.0
401.1551,911.0
401.2189,880.0
401.2826,892.0
401.3464,831.0
401.4102,904.0
401.4739,805.0
401.5376,888.0
401.6014,814.0
401.6651,899.0
401.7289,822.0
401.7926,938.0
401.8564,862.0
401.92,891.0
401.9838,887.0
402.0475,917.0
402.1112,855.0
402.175,895.0
402.2386,809.0
402.3023,865.0
402.366,794.0
402.4297,983.0
402.4934,899.0
402.5571,928.0
402.6208,884.0
402.6845,959.0
402.7482,867.0
402.8118,923.0
402.8755,838.0
402.9392,960.0
403.0028,873.0
403.0665,937.0
403.1301,849.0
403.1938,931.0
403.2574,862.0
403.3211,986.0
403.3847,862.0
403.4484,916.0
403.512,851.0
403.5756,939.0
403.6393,843.0
403.7029,949.0
403.7665,842.0
403.8301,933.0
403.8937,813.0
403.9573,941.0
404.0209,788.0
404.0845,975.0
404.1481,808.0
404.2117,944.0
404.2753,866.0
404.3389,920.0
404.4024,817.0
404.466,944.0
404.5296,834.0
404.5932,977.0
404.6567,932.0
404.7203,948.0
404.7838,822.0
404.8474,909.0
404.9109,814.0
404.9745,894.0
405.0381,840.0
405.1016,957.0
405.1651,866.0
405.2286,941.0
405.2922,883.0
405.3557,936.0
405.4193,850.0
405.4828,925.0
405.5462,874.0
405.6097,943.0
405.6733,838.0
405.7368,931.0
405.8003,826.0
405.8638,893.0
405.9272,865.0
405.9907,919.0
406.0542,843.0
406.1177,905.0
406.1812,848.0
406.2446,902.0
406.3081,849.0
406.3716,919.0
406.435,866.0
406.4985,884.0
406.562,887.0
406.6254,914.0
406.6888,869.0
406.7523,937.0
406.8157,840.0
406.8791,949.0
406.9426,849.0
407.006,950.0
407.0694,876.0
407.1328,954.0
407.1962,842.0
407.2597,964.0
407.3231,877.0
407.3865,978.0
407.4499,857.0
407.5133,975.0
407.5767,932.0
407.64,946.0
407.7034,851.0
407.7668,956.0
407.8302,907.0
407.8936,974.0
407.9569,867.0
408.0203,975.0
408.0836,914.0
408.147,989.0
408.2104,861.0
408.2737,947.0
408.3371,927.0
408.4004,1005.0
408.4637,898.0
408.5271,952.0
408.5905,915.0
408.6537,963.0
408.7171,868.0
408.7804,947.0
408.8437,882.0
408.907,957.0
408.9703,873.0
409.0336,952.0
409.0969,859.0
409.1602,995.0
409.2235,890.0
409.2868,970.0
409.3501,904.0
409.4134,967.0
409.4767,879.0
409.5399,981.0
409.6032,901.0
409.6665,914.0
409.7297,889.0
409.793,995.0
409.8563,902.0
409.9195,948.0
409.9827,941.0
410.046,966.0
410.1092,911.0
410.1725,963.0
410.2357,938.0
410.299,954.0
410.3622,921.0
410.4254,973.0
410.4886,881.0
410.5518,929.0
410.615,925.0
410.6782,958.0
410.7414,892.0
410.8046,986.0
410.8678,910.0
410.931,978.0
410.9942,845.0
411.0574,962.0
411.1205,879.0
411.1837,965.0
411.2469,879.0
411.3101,954.0
411.3733,881.0
411.4364,971.0
411.4995,852.0
411.5627,969.0
411.6259,851.0
411.689,986.0
411.7521,901.0
411.8153,988.0
411.8784,964.0
411.9415,979.0
412.0046,879.0
412.0678,944.0
412.1309,894.0
412.194,932.0
412.2571,883.0
412.3203,957.0
412.3833,868.0
412.4464,987.0
412.5096,842.0
412.5727,907.0
412.6357,870.0
412.6988,982.0
412.7619,899.0
412.825,951.0
412.8881,885.0
412.9511,915.0
413.0142,851.0
413.0772,913.0
413.1403,887.0
413.2033,932.0
413.2664,873.0
413.3294,917.0
413.3925,840.0
413.4555,983.0
413.5186,886.0
413.5816,960.0
413.6446,908.0
413.7076,968.0
413.7707,819.0
413.8337,963.0
413.8967,852.0
413.9597,972.0
414.0227,906.0
414.0857,959.0
414.1487,895.0
414.2117,918.0
414.2747,816.0
414.3376,987.0
414.4006,927.0
414.4636,1027.0
414.5266,907.0
414.5896,960.0
414.6525,955.0
414.7155,997.0
414.7784,939.0
414.8414,1065.0
414.9044,1036.0
414.9673,1083.0
415.0303,976.0
415.0932,1097.0
415.1561,980.0
415.2191,988.0
415.282,939.0
415.3449,1032.0
415.4079,934.0
415.4708,1028.0
415.5336,972.0
415.5966,1123.0
415.6595,964.0
415.7224,1087.0
415.7853,966.0
415.8482,980.0
415.9111,879.0
415.9739,1024.0
416.0368,951.0
416.0997,1037.0
416.1626,960.0
416.2255,989.0
416.2883,938.0
416.3512,1023.0
416.414,966.0
416.4769,1054.0
416.5397,1008.0
416.6026,1059.0
416.6654,1001.0
416.7283,1079.0
416.7911,937.0
416.8539,980.0
416.9167,943.0
416.9796,966.0
417.0424,967.0
417.1052,1028.0
417.168,914.0
417.2308,975.0
417.2936,955.0
417.3564,1009.0
417.4193,940.0
417.4821,989.0
417.5448,959.0
417.6076,1053.0
417.6704,972.0
417.7332,1068.0
417.796,1016.0
417.8587,1111.0
417.9215,1068.0
417.9842,1086.0
418.047,976.0
418.1098,1036.0
418.1725,953.0
418.2353,982.0
418.298,843.0
418.3607,976.0
418.4235,784.0
418.4862,944.0
418.549,907.0
418.6117,971.0
418.6744,884.0
418.7371,996.0
418.7998,880.0
418.8625,945.0
418.9252,869.0
418.9879,938.0
419.0507,870.0
419.1133,980.0
419.176,950.0
419.2387,1080.0
419.3014,975.0
419.3641,1065.0
419.4268,1044.0
419.4894,1131.0
419.5521,1048.0
419.6147,1137.0
419.6774,980.0
419.7401,994.0
419.8027,905.0
419.8654,924.0
419.928,872.0
419.9906,912.0
420.0533,863.0
420.1159,920.0
420.1785,840.0
420.2411,882.0
420.3038,834.0
420.3664,905.0
420.429,792.0
420.4916,886.0
420.5542,855.0
420.6168,929.0
420.6794,816.0
420.742,920.0
420.8046,903.0
420.8672,939.0
420.9297,862.0
420.9923,1014.0
421.0549,872.0
421.1175,1001.0
421.18,883.0
421.2426,931.0
421.3052,957.0
421.3677,1074.0
421.4303,1012.0
421.4928,1051.0
421.5554,947.0
421.6179,898.0
421.6804,869.0
421.743,838.0
421.8055,801.0
421.868,887.0
421.9305,761.0
421.993,814.0
422.0556,765.0
422.1181,816.0
422.1806,733.0
422.2431,864.0
422.3055,781.0
422.368,862.0
422.4305,788.0
422.493,908.0
422.5555,842.0
422.618,936.0
422.6805,843.0
422.7429,902.0
422.8054,812.0
422.8679,873.0
422.9303,786.0
422.9928,853.0
423.0552,777.0
423.1177,826.0
423.1801,764.0
423.2425,869.0
423.305,784.0
423.3674,836.0
423.4298,825.0
423.4922,874.0
423.5547,772.0
423.617,866.0
423.6795,758.0
423.7419,876.0
423.8043,823.0
423.8667,866.0
423.9291,799.0
423.9915,887.0
424.0538,816.0
424.1163,879.0
424.1786,763.0
424.241,857.0
424.3034,811.0
424.3658,898.0
424.4281,807.0
424.4905,903.0
424.5529,778.0
424.6152,887.0
424.6775,809.0
424.7399,927.0
424.8022,839.0
424.8646,901.0
424.9269,819.0
424.9892,876.0
425.0515,851.0
425.1139,911.0
425.1762,802.0
425.2385,947.0
425.3008,824.0
425.3631,899.0
425.4254,817.0
425.4877,935.0
425.55,827.0
425.6123,930.0
425.6746,867.0
425.7369,910.0
425.7992,853.0
425.8614,911.0
425.9237,815.0
425.9859,915.0
426.0482,869.0
426.1105,918.0
426.1727,827.0
426.235,887.0
426.2972,831.0
426.3595,912.0
426.4217,861.0
426.4839,967.0
426.5462,897.0
426.6084,911.0
426.6706,876.0
426.7328,938.0
426.795,873.0
426.8573,916.0
426.9195,823.0
426.9817,936.0
427.0439,883.0
427.1061,922.0
427.1683,860.0
427.2305,879.0
427.2927,838.0
427.3549,853.0
427.417,849.0
427.4792,938.0
427.5413,811.0
427.6035,909.0
427.6657,842.0
427.7278,916.0
427.79,845.0
427.8521,919.0
427.9142,834.0
427.9764,893.0
428.0386,800.0
428.1007,892.0
428.1628,869.0
428.2249,911.0
428.287,850.0
428.3492,918.0
428.4113,860.0
428.4734,918.0
428.5355,851.0
428.5976,915.0
428.6597,851.0
428.7218,890.0
428.7839,817.0
428.846,895.0
428.9081,853.0
428.9702,879.0
429.0322,807.0
429.0943,912.0
429.1563,831.0
429.2184,878.0
429.2805,809.0
429.3425,899.0
429.4046,784.0
429.4666,853.0
429.5287,803.0
429.5908,900.0
429.6528,761.0
429.7148,872.0
429.7768,780.0
429.8388,867.0
429.9008,826.0
429.9629,896.0
430.0249,786.0
430.0869,878.0
430.1489,841.0
430.2109,915.0
430.2729,760.0
430.3349,869.0
430.3969,795.0
430.4589,894.0
430.5208,819.0
430.5828,866.0
430.6448,762.0
430.7068,867.0
430.7688,761.0
430.8307,867.0
430.8926,767.0
430.9546,879.0
431.0165,751.0
431.0785,852.0
431.1404,771.0
431.2024,861.0
431.2643,777.0
431.3262,899.0
431.3881,842.0
431.4501,851.0
431.512,810.0
431.5739,854.0
431.6358,757.0
431.6977,835.0
431.7596,779.0
431.8215,857.0
431.8834,757.0
431.9453,858.0
432.0072,799.0
432.0691,863.0
432.131,780.0
432.1928,902.0
432.2547,759.0
432.3165,829.0
432.3784,727.0
432.4403,848.0
432.5021,799.0
432.564,873.0
432.6258,786.0
432.6876,843.0
432.7495,760.0
432.8113,813.0
432.8732,778.0
432.935,787.0
432.9968,741.0
433.0586,838.0
433.1204,750.0
433.1823,871.0
433.2441,805.0
433.3059,814.0
433.3677,809.0
433.4295,829.0
433.4912,757.0
433.5531,838.0
433.6148,775.0
433.6766,826.0
433.7384,790.0
433.8001,872.0
433.8619,761.0
433.9237,897.0
433.9854,785.0
434.0472,839.0
434.1089,782.0
434.1707,808.0
434.2324,802.0
434.2942,868.0
434.3559,771.0
434.4177,883.0
434.4794,782.0
434.5411,897.0
434.6028,820.0
434.6645,819.0
434.7263,821.0
434.788,883.0
434.8497,820.0
434.9113,888.0
434.973,769.0
435.0347,864.0
435.0965,703.0
435.1581,872.0
435.2198,756.0
435.2815,840.0
435.3431,774.0
435.4048,889.0
435.4665,784.0
435.5282,918.0
435.5898,822.0
435.6515,861.0
435.7131,844.0
435.7747,906.0
435.8363,829.0
435.898,885.0
435.9597,820.0
436.0213,882.0
436.0829,827.0
436.1445,976.0
436.2061,828.0
436.2678,906.0
436.3294,893.0
436.391,975.0
436.4525,892.0
436.5141,894.0
436.5757,835.0
436.6373,900.0
436.6989,777.0
436.7605,906.0
436.8221,839.0
436.8836,883.0
436.9452,828.0
437.0067,930.0
437.0684,861.0
437.1299,915.0
437.1914,791.0
437.253,898.0
437.3145,789.0
437.3761,880.0
437.4376,789.0
437.4992,827.0
437.5607,745.0
437.6222,850.0
437.6837,782.0
437.7452,884.0
437.8067,757.0
437.8683,836.0
437.9298,819.0
437.9913,879.0
438.0528,828.0
438.1143,838.0
438.1757,792.0
438.2372,873.0
438.2987,793.0
438.3602,862.0
438.4217,805.0
438.4831,832.0
438.5446,754.0
438.6061,840.0
438.6675,745.0
438.729,852.0
438.7904,732.0
438.8519,881.0
438.9133,786.0
438.9747,816.0
439.0362,730.0
439.0976,822.0
439.159,752.0
439.2204,805.0
439.2819,728.0
439.3433,849.0
439.4047,719.0
439.4661,862.0
439.5275,760.0
439.5889,818.0
439.6503,716.0
439.7116,861.0
439.7731,763.0
439.8345,882.0
439.8958,699.0
439.9572,842.0
440.0186,778.0
440.0799,841.0
440.1413,771.0
440.2027,871.0
440.264,749.0
440.3253,803.0
440.3867,788.0
440.448,871.0
440.5093,771.0
440.5707,828.0
440.632,789.0
440.6934,858.0
440.7546,761.0
440.816,889.0
440.8773,726.0
440.9386,854.0
440.9999,789.0
441.0612,818.0
441.1225,814.0
441.1838,801.0
441.2451,769.0
441.3063,838.0
441.3677,767.0
441.429,785.0
441.4902,778.0
441.5515,866.0
441.6127,779.0
441.674,843.0
441.7353,792.0
441.7965,817.0
441.8578,751.0
441.919,843.0
441.9802,809.0
442.0414,890.0
442.1027,770.0
442.164,811.0
442.2252,795.0
442.2864,824.0
442.3476,755.0
442.4088,863.0
442.47,799.0
442.5312,871.0
442.5924,748.0
442.6536,831.0
442.7148,797.0
442.776,807.0
442.8372,751.0
442.8984,834.0
442.9596,745.0
443.0207,842.0
443.0819,789.0
443.143,861.0
443.2042,759.0
443.2653,840.0
443.3265,771.0
443.3877,830.0
443.4488,758.0
443.5099,837.0
443.5711,766.0
443.6322,849.0
443.6934,759.0
443.7545,887.0
443.8156,768.0
443.8767,871.0
443.9378,736.0
443.9989,839.0
444.0601,777.0
444.1212,856.0
444.1822,787.0
444.2433,872.0
444.3044,825.0
444.3654,906.0
444.4265,780.0
444.4877,871.0
444.5487,806.0
444.6098,894.0
444.6708,813.0
444.7319,830.0
444.7929,809.0
444.854,877.0
444.915,779.0
444.9761,856.0
445.0371,737.0
445.0981,866.0
445.1592,786.0
445.2203,871.0
445.2812,808.0
445.3423,888.0
445.4033,789.0
445.4643,875.0
445.5253,783.0
445.5862,890.0
445.6473,770.0
445.7083,822.0
445.7693,823.0
445.8303,845.0
445.8912,791.0
445.9522,829.0
446.0132,789.0
446.0742,807.0
446.1352,828.0
446.1961,835.0
446.257,790.0
446.318,878.0
446.379,763.0
446.4399,854.0
446.5009,789.0
446.5618,865.0
446.6227,745.0
446.6836,825.0
446.7446,769.0
446.8055,820.0
446.8664,784.0
446.9273,840.0
446.9883,802.0
447.0491,870.0
447.11,790.0
447.171,856.0
447.2319,738.0
447.2927,861.0
447.3536,779.0
447.4145,839.0
447.4753,754.0
447.5363,825.0
447.5971,742.0
447.658,849.0
447.7188,759.0
447.7797,863.0
447.8405,720.0
447.9014,841.0
447.9623,748.0
448.0231,803.0
448.0839,743.0
448.1447,806.0
448.2056,706.0
448.2664,798.0
448.3272,765.0
448.3881,829.0
448.4489,745.0
448.5096,817.0
448.5705,727.0
448.6312,776.0
448.6921,752.0
448.7529,854.0
448.8137,700.0
448.8744,793.0
448.9352,714.0
448.9959,836.0
449.0567,749.0
449.1175,822.0
449.1783,726.0
449.239,805.0
449.2998,744.0
449.3605,828.0
449.4213,709.0
449.4821,817.0
449.5428,746.0
449.6035,810.0
449.6642,744.0
449.725,824.0
449.7857,728.0
449.8464,827.0
449.9071,693.0
449.9679,762.0
450.0285,722.0
450.0892,826.0
450.1499,751.0
450.2106,778.0
450.2714,739.0
450.332,779.0
450.3927,707.0
450.4534,787.0
450.514,729.0
450.5747,767.0
450.6354,745.0
450.696,789.0
450.7567,671.0
450.8174,806.0
450.878,713.0
450.9386,812.0
450.9993,742.0
451.0599,805.0
451.1206,745.0
451.1812,788.0
451.2418,722.0
451.3024,793.0
451.363,714.0
451.4236,796.0
451.4843,690.0
451.5449,811.0
451.6054,762.0
451.666,839.0
451.7267,758.0
451.7873,783.0
451.8478,693.0
451.9084,835.0
451.969,681.0
452.0295,819.0
452.0901,711.0
452.1507,788.0
452.2113,667.0
452.2718,772.0
452.3324,675.0
452.3929,791.0
452.4534,710.0
452.5139,797.0
452.5745,704.0
452.635,779.0
452.6956,705.0
452.7561,757.0
452.8166,732.0
452.8771,814.0
452.9377,645.0
452.9981,794.0
453.0586,702.0
453.1191,842.0
453.1796,721.0
453.2401,818.0
453.3006,729.0
453.3611,785.0
453.4216,695.0
453.4821,802.0
453.5425,719.0
453.6029,796.0
453.6634,712.0
453.7239,783.0
453.7844,781.0
453.8448,841.0
453.9052,708.0
453.9656,806.0
454.0261,747.0
454.0866,798.0
454.147,708.0
454.2074,816.0
454.2678,747.0
454.3282,785.0
454.3886,727.0
454.449,824.0
454.5095,720.0
454.5699,839.0
454.6302,752.0
454.6906,803.0
454.751,710.0
454.8114,828.0
454.8718,709.0
454.9322,856.0
454.9925,717.0
455.0529,803.0
455.1133,770.0
455.1736,794.0
455.234,736.0
455.2943,804.0
455.3547,769.0
455.415,829.0
455.4753,733.0
455.5357,808.0
455.5959,718.0
455.6563,870.0
455.7167,720.0
455.777,812.0
455.8373,738.0
455.8976,791.0
455.9579,811.0
456.0182,804.0
456.0785,734.0
456.1388,831.0
456.1991,737.0
456.2593,837.0
456.3196,754.0
456.3799,857.0
456.4402,797.0
456.5005,792.0
456.5607,780.0
456.621,789.0
456.6812,752.0
456.7414,842.0
456.8018,806.0
456.862,754.0
456.9222,756.0
456.9825,820.0
457.0426,767.0
457.1028,817.0
457.1631,739.0
457.2234,868.0
457.2835,752.0
457.3438,877.0
457.404,778.0
457.4641,823.0
457.5244,726.0
457.5846,860.0
457.6447,770.0
457.7049,855.0
457.7651,791.0
457.8253,877.0
457.8854,762.0
457.9456,815.0
458.0058,707.0
458.0659,805.0
458.1261,736.0
458.1862,817.0
458.2464,761.0
458.3066,861.0
458.3667,786.0
458.4268,870.0
458.4869,796.0
458.5471,700.0
458.6072,618.0
458.6674,741.0
458.7274,613.0
458.7876,708.0
458.8477,632.0
458.9077,633.0
458.9679,602.0
459.0279,674.0
459.0881,632.0
459.1481,684.0
459.2082,602.0
459.2683,715.0
459.3283,597.0
459.3884,728.0
459.4485,608.0
459.5086,709.0
459.5686,607.0
459.6287,682.0
459.6887,636.0
459.7487,712.0
459.8088,678.0
459.8688,689.0
459.9289,619.0
459.9889,734.0
460.0489,630.0
460.1089,705.0
460.1689,622.0
460.229,699.0
460.289,573.0
