Laser settings:
	Diode frequency:	5 Hz
	Pulses fired:		105
	Q-Switch blanking:	5
	Q-Switch delay:		201 μs
	Q-Switch presync:	1 μs
Spectrometer settings:
	Integration time:	0.0090 ms
	Integration delay:	0.000 ns
	Averaging:		1
	Trigger mode:		External
	Dynamic Dark Correction:		Disabled


wavelength,intensity
184.9409,645.0
185.0142,598.0
185.0875,657.0
185.1608,659.0
185.2341,699.0
185.3074,592.0
185.3807,693.0
185.454,662.0
185.5273,699.0
185.6006,639.0
185.6739,662.0
185.7472,626.0
185.8205,699.0
185.8938,657.0
185.9671,673.0
186.0403,585.0
186.1136,647.0
186.1869,617.0
186.2601,726.0
186.3334,564.0
186.4067,698.0
186.4799,597.0
186.5532,704.0
186.6265,647.0
186.6997,684.0
186.773,613.0
186.8462,714.0
186.9195,618.0
186.9928,673.0
187.066,650.0
187.1392,664.0
187.2125,645.0
187.2857,699.0
187.3589,630.0
187.4322,687.0
187.5054,632.0
187.5786,688.0
187.6519,649.0
187.7251,753.0
187.7983,595.0
187.8715,704.0
187.9447,660.0
188.018,744.0
188.0912,648.0
188.1644,747.0
188.2376,638.0
188.3108,726.0
188.384,622.0
188.4572,710.0
188.5304,677.0
188.6036,715.0
188.6768,655.0
188.75,745.0
188.8232,623.0
188.8963,702.0
188.9695,641.0
189.0427,733.0
189.1159,644.0
189.1891,725.0
189.2623,677.0
189.3354,710.0
189.4086,696.0
189.4818,706.0
189.5549,650.0
189.6281,732.0
189.7012,659.0
189.7744,708.0
189.8476,645.0
189.9207,729.0
189.9939,682.0
190.067,715.0
190.1402,684.0
190.2133,738.0
190.2864,658.0
190.3596,743.0
190.4327,711.0
190.5059,730.0
190.579,687.0
190.6521,741.0
190.7253,645.0
190.7984,727.0
190.8715,671.0
190.9446,749.0
191.0177,654.0
191.0908,736.0
191.164,687.0
191.2371,743.0
191.3102,654.0
191.3833,737.0
191.4564,662.0
191.5295,793.0
191.6026,617.0
191.6757,777.0
191.7488,686.0
191.8219,743.0
191.895,678.0
191.968,708.0
192.0411,690.0
192.1142,747.0
192.1873,655.0
192.2604,765.0
192.3334,664.0
192.4065,783.0
192.4796,705.0
192.5527,759.0
192.6257,662.0
192.6988,776.0
192.7718,765.0
192.8449,826.0
192.918,809.0
192.991,957.0
193.064,942.0
193.1371,1092.0
193.2101,943.0
193.2832,952.0
193.3562,876.0
193.4292,845.0
193.5023,744.0
193.5753,801.0
193.6484,718.0
193.7214,822.0
193.7944,736.0
193.8674,792.0
193.9405,680.0
194.0135,791.0
194.0865,711.0
194.1595,796.0
194.2325,702.0
194.3055,790.0
194.3785,665.0
194.4515,763.0
194.5246,738.0
194.5975,807.0
194.6705,707.0
194.7435,738.0
194.8165,645.0
194.8895,801.0
194.9625,703.0
195.0355,769.0
195.1085,695.0
195.1815,754.0
195.2544,676.0
195.3274,761.0
195.4004,706.0
195.4734,769.0
195.5463,649.0
195.6193,788.0
195.6923,736.0
195.7652,767.0
195.8382,698.0
195.9111,762.0
195.9841,694.0
196.057,786.0
196.13,743.0
196.2029,801.0
196.2759,723.0
196.3488,731.0
196.4218,721.0
196.4947,769.0
196.5676,698.0
196.6406,807.0
196.7135,697.0
196.7864,798.0
196.8593,682.0
196.9323,765.0
197.0052,707.0
197.0781,766.0
197.151,659.0
197.2239,757.0
197.2969,710.0
197.3697,777.0
197.4427,677.0
197.5156,741.0
197.5885,722.0
197.6614,791.0
197.7343,678.0
197.8072,828.0
197.88,686.0
197.9529,759.0
198.0258,687.0
198.0987,757.0
198.1716,682.0
198.2445,753.0
198.3173,699.0
198.3902,743.0
198.4631,698.0
198.5359,791.0
198.6088,630.0
198.6817,767.0
198.7545,733.0
198.8274,737.0
198.9003,707.0
198.9731,761.0
199.046,683.0
199.1188,776.0
199.1917,724.0
199.2645,769.0
199.3373,724.0
199.4102,745.0
199.483,698.0
199.5559,730.0
199.6287,708.0
199.7015,788.0
199.7744,726.0
199.8472,773.0
199.92,697.0
199.9928,750.0
200.0656,708.0
200.1385,747.0
200.2113,718.0
200.2841,770.0
200.3569,653.0
200.4297,788.0
200.5025,663.0
200.5753,755.0
200.6481,685.0
200.7209,736.0
200.7937,682.0
200.8665,753.0
200.9393,643.0
201.0121,798.0
201.0848,688.0
201.1576,813.0
201.2304,682.0
201.3032,769.0
201.3759,731.0
201.4487,754.0
201.5215,698.0
201.5943,763.0
201.667,710.0
201.7398,761.0
201.8125,663.0
201.8853,757.0
201.958,617.0
202.0308,817.0
202.1035,730.0
202.1763,777.0
202.249,726.0
202.3218,780.0
202.3945,686.0
202.4673,815.0
202.54,716.0
202.6127,799.0
202.6855,674.0
202.7582,769.0
202.8309,671.0
202.9036,774.0
202.9764,649.0
203.0491,775.0
203.1218,672.0
203.1945,763.0
203.2672,719.0
203.3399,724.0
203.4126,719.0
203.4853,784.0
203.558,691.0
203.6307,785.0
203.7034,724.0
203.7761,783.0
203.8488,744.0
203.9215,773.0
203.9942,668.0
204.0669,762.0
204.1395,667.0
204.2122,742.0
204.2849,742.0
204.3576,758.0
204.4302,683.0
204.5029,767.0
204.5756,739.0
204.6482,755.0
204.7209,717.0
204.7935,809.0
204.8662,695.0
204.9389,775.0
205.0115,723.0
205.0842,800.0
205.1568,724.0
205.2294,709.0
205.3021,719.0
205.3747,751.0
205.4474,718.0
205.52,730.0
205.5926,688.0
205.6653,789.0
205.7379,685.0
205.8105,773.0
205.8831,711.0
205.9557,742.0
206.0284,694.0
206.101,750.0
206.1736,698.0
206.2462,755.0
206.3188,701.0
206.3914,753.0
206.464,707.0
206.5366,777.0
206.6092,653.0
206.6818,752.0
206.7544,728.0
206.827,813.0
206.8996,680.0
206.9721,760.0
207.0447,712.0
207.1173,750.0
207.1899,716.0
207.2625,780.0
207.335,716.0
207.4076,746.0
207.4802,725.0
207.5527,748.0
207.6253,704.0
207.6978,778.0
207.7704,747.0
207.843,778.0
207.9155,704.0
207.9881,804.0
208.0606,699.0
208.1331,775.0
208.2057,683.0
208.2782,768.0
208.3508,730.0
208.4233,791.0
208.4958,711.0
208.5684,731.0
208.6409,710.0
208.7134,749.0
208.7859,675.0
208.8584,783.0
208.931,685.0
209.0035,741.0
209.076,698.0
209.1485,767.0
209.221,685.0
209.2935,764.0
209.366,744.0
209.4385,789.0
209.511,685.0
209.5835,792.0
209.656,698.0
209.7285,780.0
209.801,704.0
209.8735,804.0
209.9459,738.0
210.0184,775.0
210.0909,740.0
210.1634,782.0
210.2358,702.0
210.3083,753.0
210.3808,715.0
210.4532,766.0
210.5257,687.0
210.5982,733.0
210.6706,678.0
210.7431,721.0
210.8155,707.0
210.888,717.0
210.9604,672.0
211.0329,743.0
211.1053,638.0
211.1777,731.0
211.2502,684.0
211.3226,726.0
211.3951,699.0
211.4675,789.0
211.5399,681.0
211.6123,776.0
211.6847,707.0
211.7572,747.0
211.8296,722.0
211.902,778.0
211.9744,706.0
212.0468,743.0
212.1192,697.0
212.1917,737.0
212.264,715.0
212.3364,769.0
212.4088,685.0
212.4812,792.0
212.5536,718.0
212.626,783.0
212.6984,712.0
212.7708,772.0
212.8432,696.0
212.9155,803.0
212.9879,711.0
213.0603,718.0
213.1326,708.0
213.205,792.0
213.2774,693.0
213.3498,737.0
213.4221,725.0
213.4945,810.0
213.5668,722.0
213.6392,762.0
213.7115,684.0
213.7839,792.0
213.8562,699.0
213.9286,751.0
214.0009,743.0
214.0732,772.0
214.1456,728.0
214.2179,781.0
214.2903,675.0
214.3626,765.0
214.4349,692.0
214.5072,804.0
214.5796,684.0
214.6519,765.0
214.7242,772.0
214.7965,828.0
214.8688,684.0
214.9411,786.0
215.0134,726.0
215.0857,840.0
215.158,688.0
215.2303,784.0
215.3026,769.0
215.3749,821.0
215.4472,742.0
215.5195,816.0
215.5918,708.0
215.6641,804.0
215.7363,728.0
215.8086,777.0
215.8809,696.0
215.9532,774.0
216.0254,662.0
216.0977,732.0
216.17,658.0
216.2422,774.0
216.3145,727.0
216.3867,811.0
216.459,722.0
216.5313,817.0
216.6035,721.0
216.6758,767.0
216.748,661.0
216.8202,773.0
216.8925,726.0
216.9647,818.0
217.037,729.0
217.1092,794.0
217.1814,722.0
217.2536,829.0
217.3259,695.0
217.3981,782.0
217.4703,683.0
217.5425,777.0
217.6147,740.0
217.687,815.0
217.7592,783.0
217.8314,811.0
217.9035,764.0
217.9758,766.0
218.048,731.0
218.1201,797.0
218.1924,721.0
218.2645,838.0
218.3367,735.0
218.4089,751.0
218.4811,722.0
218.5533,800.0
218.6255,699.0
218.6976,767.0
218.7698,707.0
218.842,775.0
218.9142,722.0
218.9863,783.0
219.0585,753.0
219.1306,825.0
219.2028,749.0
219.2749,783.0
219.3471,745.0
219.4193,804.0
219.4914,732.0
219.5636,802.0
219.6357,763.0
219.7078,842.0
219.78,776.0
219.8521,850.0
219.9242,761.0
219.9964,833.0
220.0685,739.0
220.1406,828.0
220.2128,779.0
220.2849,842.0
220.357,804.0
220.4291,839.0
220.5012,722.0
220.5733,831.0
220.6454,741.0
220.7175,820.0
220.7896,769.0
220.8617,877.0
220.9338,747.0
221.0059,810.0
221.078,764.0
221.1501,828.0
221.2222,756.0
221.2943,861.0
221.3663,745.0
221.4384,814.0
221.5105,792.0
221.5826,834.0
221.6546,726.0
221.7267,794.0
221.7988,773.0
221.8708,826.0
221.9429,727.0
222.015,795.0
222.087,755.0
222.1591,816.0
222.2311,761.0
222.3032,865.0
222.3752,733.0
222.4473,811.0
222.5193,720.0
222.5913,780.0
222.6634,722.0
222.7354,832.0
222.8074,789.0
222.8795,810.0
222.9515,746.0
223.0235,765.0
223.0955,750.0
223.1675,816.0
223.2395,795.0
223.3116,793.0
223.3836,756.0
223.4556,807.0
223.5276,770.0
223.5996,805.0
223.6716,778.0
223.7436,828.0
223.8156,733.0
223.8876,841.0
223.9595,742.0
224.0315,781.0
224.1035,770.0
224.1755,802.0
224.2475,758.0
224.3195,835.0
224.3914,782.0
224.4634,859.0
224.5354,757.0
224.6073,815.0
224.6793,807.0
224.7512,849.0
224.8232,769.0
224.8952,896.0
224.9671,767.0
225.0391,839.0
225.111,788.0
225.1829,882.0
225.2549,786.0
225.3268,809.0
225.3988,771.0
225.4707,876.0
225.5426,785.0
225.6146,851.0
225.6865,824.0
225.7584,863.0
225.8303,748.0
225.9022,874.0
225.9742,775.0
226.0461,834.0
226.118,773.0
226.1899,894.0
226.2618,783.0
226.3337,867.0
226.4056,817.0
226.4775,912.0
226.5494,785.0
226.6213,845.0
226.6932,747.0
226.7651,858.0
226.8369,794.0
226.9088,882.0
226.9807,810.0
227.0526,865.0
227.1245,783.0
227.1963,867.0
227.2682,775.0
227.3401,861.0
227.4119,760.0
227.4838,853.0
227.5556,779.0
227.6275,849.0
227.6993,776.0
227.7712,846.0
227.8431,782.0
227.9149,833.0
227.9867,764.0
228.0586,780.0
228.1304,777.0
228.2023,875.0
228.2741,788.0
228.3459,852.0
228.4177,784.0
228.4896,874.0
228.5614,799.0
228.6332,820.0
228.705,802.0
228.7768,878.0
228.8486,769.0
228.9205,869.0
228.9923,800.0
229.0641,909.0
229.1359,837.0
229.2077,870.0
229.2794,810.0
229.3513,966.0
229.423,936.0
229.4948,1090.0
229.5666,1125.0
229.6384,1317.0
229.7102,1263.0
229.782,1136.0
229.8537,983.0
229.9255,934.0
229.9973,908.0
230.069,869.0
230.1408,756.0
230.2126,863.0
230.2843,743.0
230.3561,842.0
230.4278,726.0
230.4996,816.0
230.5713,741.0
230.6431,827.0
230.7148,767.0
230.7866,809.0
230.8583,744.0
230.93,804.0
231.0018,781.0
231.0735,815.0
231.1452,696.0
231.2169,842.0
231.2887,750.0
231.3604,842.0
231.4321,769.0
231.5038,786.0
231.5755,779.0
231.6472,829.0
231.7189,757.0
231.7906,836.0
231.8624,741.0
231.9341,881.0
232.0057,774.0
232.0774,824.0
232.1491,748.0
232.2208,818.0
232.2925,724.0
232.3642,823.0
232.4359,784.0
232.5075,880.0
232.5792,771.0
232.6509,836.0
232.7225,731.0
232.7942,852.0
232.8659,738.0
232.9375,801.0
233.0092,768.0
233.0809,835.0
233.1525,754.0
233.2242,851.0
233.2958,792.0
233.3675,808.0
233.4391,787.0
233.5107,815.0
233.5824,725.0
233.654,798.0
233.7256,750.0
233.7973,835.0
233.8689,771.0
233.9405,812.0
234.0121,745.0
234.0838,775.0
234.1554,719.0
234.227,843.0
234.2986,712.0
234.3702,796.0
234.4418,729.0
234.5134,805.0
234.585,739.0
234.6566,802.0
234.7282,748.0
234.7998,816.0
234.8714,716.0
234.943,809.0
235.0146,743.0
235.0862,816.0
235.1577,758.0
235.2293,814.0
235.3009,718.0
235.3725,849.0
235.444,750.0
235.5156,857.0
235.5872,733.0
235.6587,827.0
235.7303,772.0
235.8018,821.0
235.8734,784.0
235.9449,836.0
236.0165,797.0
236.088,870.0
236.1596,764.0
236.2311,796.0
236.3026,778.0
236.3742,840.0
236.4457,793.0
236.5172,858.0
236.5887,800.0
236.6603,795.0
236.7318,740.0
236.8033,846.0
236.8748,769.0
236.9464,876.0
237.0179,711.0
237.0894,824.0
237.1609,807.0
237.2324,802.0
237.3039,726.0
237.3754,843.0
237.4469,748.0
237.5184,867.0
237.5898,767.0
237.6613,801.0
237.7328,795.0
237.8043,854.0
237.8758,767.0
237.9472,855.0
238.0187,778.0
238.0902,859.0
238.1617,783.0
238.2331,889.0
238.3046,813.0
238.376,825.0
238.4475,745.0
238.519,843.0
238.5904,762.0
238.6618,846.0
238.7333,748.0
238.8047,826.0
238.8762,757.0
238.9476,859.0
239.0191,769.0
239.0905,866.0
239.1619,743.0
239.2334,842.0
239.3048,743.0
239.3762,818.0
239.4476,781.0
239.519,851.0
239.5904,815.0
239.6619,911.0
239.7333,783.0
239.8047,896.0
239.8761,773.0
239.9475,885.0
240.0189,755.0
240.0903,905.0
240.1617,792.0
240.233,884.0
240.3044,768.0
240.3758,855.0
240.4472,784.0
240.5186,880.0
240.59,756.0
240.6613,872.0
240.7327,787.0
240.8041,900.0
240.8754,774.0
240.9468,838.0
241.0181,764.0
241.0895,843.0
241.1609,818.0
241.2322,837.0
241.3036,783.0
241.3749,908.0
241.4462,781.0
241.5176,861.0
241.5889,780.0
241.6602,891.0
241.7316,778.0
241.8029,860.0
241.8743,774.0
241.9456,868.0
242.0169,783.0
242.0882,851.0
242.1595,808.0
242.2309,875.0
242.3022,800.0
242.3735,851.0
242.4448,801.0
242.5161,894.0
242.5874,815.0
242.6587,822.0
242.73,775.0
242.8013,842.0
242.8726,775.0
242.9438,837.0
243.0151,767.0
243.0864,837.0
243.1577,767.0
243.229,889.0
243.3002,808.0
243.3715,867.0
243.4428,766.0
243.5141,837.0
243.5853,824.0
243.6566,878.0
243.7278,755.0
243.7991,883.0
243.8703,772.0
243.9416,832.0
244.0128,785.0
244.0841,821.0
244.1553,767.0
244.2266,888.0
244.2978,742.0
244.369,886.0
244.4402,790.0
244.5115,821.0
244.5827,834.0
244.6539,889.0
244.7251,773.0
244.7964,861.0
244.8676,746.0
244.9388,879.0
245.01,792.0
245.0812,842.0
245.1524,804.0
245.2236,875.0
245.2948,805.0
245.366,832.0
245.4372,769.0
245.5084,864.0
245.5796,765.0
245.6507,822.0
245.7219,804.0
245.7931,858.0
245.8643,784.0
245.9355,850.0
246.0066,749.0
246.0778,776.0
246.149,739.0
246.2201,848.0
246.2913,751.0
246.3624,852.0
246.4336,736.0
246.5047,817.0
246.5759,706.0
246.647,803.0
246.7182,756.0
246.7893,880.0
246.8605,760.0
246.9316,851.0
247.0027,721.0
247.0739,846.0
247.145,742.0
247.2161,796.0
247.2872,783.0
247.3584,872.0
247.4295,821.0
247.5006,833.0
247.5717,768.0
247.6428,939.0
247.7139,994.0
247.785,1110.0
247.8561,1096.0
247.9272,1340.0
247.9983,1103.0
248.0694,1109.0
248.1405,933.0
248.2116,968.0
248.2827,850.0
248.3537,897.0
248.4248,804.0
248.4959,872.0
248.5669,802.0
248.638,881.0
248.7091,742.0
248.7802,906.0
248.8512,746.0
248.9223,885.0
248.9933,770.0
249.0644,817.0
249.1354,783.0
249.2065,869.0
249.2775,776.0
249.3486,825.0
249.4196,740.0
249.4906,841.0
249.5617,766.0
249.6327,810.0
249.7037,706.0
249.7747,868.0
249.8458,772.0
249.9168,863.0
249.9878,787.0
250.0588,825.0
250.1298,764.0
250.2009,854.0
250.2719,777.0
250.3429,847.0
250.4138,748.0
250.4849,872.0
250.5558,783.0
250.6268,864.0
250.6978,817.0
250.7688,872.0
250.8398,898.0
250.9108,977.0
250.9818,958.0
251.0527,950.0
251.1237,928.0
251.1947,1033.0
251.2657,1000.0
251.3366,893.0
251.4076,813.0
251.4785,830.0
251.5495,764.0
251.6205,854.0
251.6914,792.0
251.7623,866.0
251.8333,811.0
251.9042,852.0
251.9752,809.0
252.0461,874.0
252.1171,795.0
252.188,839.0
252.2589,746.0
252.3298,848.0
252.4008,797.0
252.4717,847.0
252.5426,757.0
252.6135,791.0
252.6844,742.0
252.7553,864.0
252.8262,765.0
252.8971,818.0
252.9681,775.0
253.039,837.0
253.1098,766.0
253.1808,772.0
253.2516,749.0
253.3225,817.0
253.3934,734.0
253.4643,819.0
253.5352,764.0
253.606,862.0
253.6769,796.0
253.7478,825.0
253.8187,835.0
253.8895,824.0
253.9604,725.0
254.0312,818.0
254.1021,754.0
254.173,805.0
254.2438,730.0
254.3147,826.0
254.3855,789.0
254.4563,791.0
254.5272,772.0
254.598,879.0
254.6689,763.0
254.7397,844.0
254.8105,759.0
254.8813,780.0
254.9522,761.0
255.023,845.0
255.0938,742.0
255.1646,859.0
255.2354,740.0
255.3062,870.0
255.3771,722.0
255.4479,851.0
255.5187,767.0
255.5894,818.0
255.6603,801.0
255.731,871.0
255.8018,747.0
255.8726,895.0
255.9434,767.0
256.0142,862.0
256.085,753.0
256.1558,849.0
256.2265,767.0
256.2973,831.0
256.3681,783.0
256.4388,884.0
256.5096,746.0
256.5804,825.0
256.6511,761.0
256.7219,845.0
256.7926,794.0
256.8634,863.0
256.9341,814.0
257.0049,836.0
257.0756,738.0
257.1463,855.0
257.2171,797.0
257.2878,883.0
257.3585,766.0
257.4292,837.0
257.5,763.0
257.5707,854.0
257.6414,773.0
257.7122,817.0
257.7828,778.0
257.8535,829.0
257.9243,725.0
257.995,888.0
258.0657,810.0
258.1364,849.0
258.2071,762.0
258.2777,848.0
258.3484,760.0
258.4191,825.0
258.4898,732.0
258.5605,837.0
258.6312,762.0
258.7018,858.0
258.7725,766.0
258.8432,814.0
258.9139,726.0
258.9845,835.0
259.0552,703.0
259.1259,835.0
259.1965,759.0
259.2672,801.0
259.3378,743.0
259.4085,839.0
259.4791,735.0
259.5497,761.0
259.6204,672.0
259.691,803.0
259.7617,741.0
259.8323,837.0
259.9029,702.0
259.9735,808.0
260.0442,707.0
260.1147,782.0
260.1854,740.0
260.256,829.0
260.3267,772.0
260.3972,879.0
260.4678,727.0
260.5384,830.0
260.6091,726.0
260.6796,846.0
260.7502,759.0
260.8208,841.0
260.8914,683.0
260.962,823.0
261.0326,757.0
261.1032,777.0
261.1737,768.0
261.2444,871.0
261.3149,759.0
261.3854,826.0
261.456,738.0
261.5266,814.0
261.5971,761.0
261.6677,899.0
261.7383,815.0
261.8088,857.0
261.8794,733.0
261.9499,816.0
262.0205,725.0
262.091,821.0
262.1615,782.0
262.2321,870.0
262.3026,794.0
262.3731,864.0
262.4437,750.0
262.5142,871.0
262.5847,747.0
262.6552,861.0
262.7257,748.0
262.7962,881.0
262.8668,757.0
262.9373,833.0
263.0078,790.0
263.0783,862.0
263.1488,792.0
263.2193,810.0
263.2898,766.0
263.3603,915.0
263.4307,777.0
263.5012,844.0
263.5717,775.0
263.6422,827.0
263.7127,801.0
263.7831,868.0
263.8536,784.0
263.9241,845.0
263.9945,803.0
264.065,898.0
264.1354,740.0
264.2059,852.0
264.2764,792.0
264.3468,881.0
264.4173,739.0
264.4877,882.0
264.5581,752.0
264.6286,876.0
264.699,766.0
264.7694,807.0
264.8399,763.0
264.9103,816.0
264.9807,752.0
265.0511,813.0
265.1216,751.0
265.192,853.0
265.2625,746.0
265.3328,864.0
265.4032,744.0
265.4736,815.0
265.5441,776.0
265.6144,825.0
265.6848,722.0
265.7552,820.0
265.8256,773.0
265.896,870.0
265.9664,724.0
266.0368,821.0
266.1071,750.0
266.1775,780.0
266.2479,763.0
266.3183,804.0
266.3886,748.0
266.459,805.0
266.5294,708.0
266.5998,841.0
266.6701,752.0
266.7404,822.0
266.8108,772.0
266.8812,828.0
266.9515,722.0
267.0219,806.0
267.0922,735.0
267.1625,842.0
267.2328,770.0
267.3032,859.0
267.3735,779.0
267.4438,775.0
267.5142,719.0
267.5845,867.0
267.6548,791.0
267.7251,819.0
267.7954,685.0
267.8657,793.0
267.936,735.0
268.0063,801.0
268.0766,779.0
268.1469,838.0
268.2172,750.0
268.2875,833.0
268.3578,690.0
268.4281,815.0
268.4984,723.0
268.5686,765.0
268.6389,752.0
268.7092,783.0
268.7794,727.0
268.8498,803.0
268.92,714.0
268.9902,826.0
269.0605,771.0
269.1308,767.0
269.201,743.0
269.2713,803.0
269.3415,693.0
269.4118,821.0
269.482,715.0
269.5523,815.0
269.6225,729.0
269.6927,822.0
269.7629,748.0
269.8332,805.0
269.9034,723.0
269.9736,798.0
270.0439,729.0
270.114,804.0
270.1843,788.0
270.2545,779.0
270.3247,733.0
270.3949,780.0
270.4651,750.0
270.5353,798.0
270.6055,699.0
270.6757,802.0
270.7459,746.0
270.8161,839.0
270.8863,773.0
270.9564,821.0
271.0266,783.0
271.0968,805.0
271.167,715.0
271.2371,862.0
271.3073,816.0
271.3775,819.0
271.4476,786.0
271.5178,833.0
271.588,803.0
271.6581,840.0
271.7282,773.0
271.7984,873.0
271.8685,738.0
271.9387,827.0
272.0088,762.0
272.0789,828.0
272.1491,784.0
272.2192,875.0
272.2893,763.0
272.3595,827.0
272.4296,788.0
272.4997,860.0
272.5698,763.0
272.64,859.0
272.7101,769.0
272.7802,838.0
272.8503,766.0
272.9204,883.0
272.9904,783.0
273.0605,902.0
273.1306,803.0
273.2007,873.0
273.2708,743.0
273.3409,853.0
273.411,785.0
273.481,837.0
273.5511,776.0
273.6212,845.0
273.6913,820.0
273.7614,862.0
273.8314,740.0
273.9015,900.0
273.9715,776.0
274.0416,840.0
274.1116,799.0
274.1817,852.0
274.2517,786.0
274.3217,894.0
274.3918,802.0
274.4619,869.0
274.5319,798.0
274.602,851.0
274.6719,843.0
274.742,841.0
274.812,798.0
274.882,877.0
274.952,803.0
275.0221,929.0
275.0921,762.0
275.1621,863.0
275.2321,806.0
275.3021,921.0
275.3721,750.0
275.4421,867.0
275.5121,757.0
275.5821,923.0
275.6521,800.0
275.722,839.0
275.792,837.0
275.862,822.0
275.932,773.0
276.002,792.0
276.0719,791.0
276.1418,870.0
276.2119,793.0
276.2818,876.0
276.3517,814.0
276.4218,849.0
276.4917,825.0
276.5616,832.0
276.6316,756.0
276.7015,855.0
276.7715,788.0
276.8414,824.0
276.9113,698.0
276.9813,834.0
277.0512,771.0
277.1211,810.0
277.191,776.0
277.261,829.0
277.3309,749.0
277.4008,865.0
277.4707,781.0
277.5406,894.0
277.6105,794.0
277.6804,832.0
277.7503,766.0
277.8202,880.0
277.8901,755.0
277.96,867.0
278.0299,750.0
278.0998,829.0
278.1697,782.0
278.2396,821.0
278.3094,767.0
278.3793,839.0
278.4492,762.0
278.519,817.0
278.5889,748.0
278.6588,879.0
278.7286,761.0
278.7985,837.0
278.8683,764.0
278.9382,874.0
279.0081,767.0
279.0779,836.0
279.1477,772.0
279.2176,830.0
279.2874,799.0
279.3572,889.0
279.4271,840.0
279.4969,858.0
279.5667,769.0
279.6365,861.0
279.7063,794.0
279.7762,880.0
279.846,817.0
279.9158,910.0
279.9856,776.0
280.0554,857.0
280.1252,824.0
280.195,866.0
280.2648,807.0
280.3346,850.0
280.4044,824.0
280.4742,896.0
280.544,793.0
280.6137,911.0
280.6835,845.0
280.7533,850.0
280.8231,824.0
280.8928,906.0
280.9626,813.0
281.0323,910.0
281.1021,791.0
281.1719,910.0
281.2416,823.0
281.3114,858.0
281.3811,831.0
281.4509,907.0
281.5206,807.0
281.5904,891.0
281.6601,785.0
281.7299,905.0
281.7996,761.0
281.8693,893.0
281.939,793.0
282.0088,868.0
282.0784,768.0
282.1482,888.0
282.2179,790.0
282.2876,836.0
282.3573,800.0
282.427,876.0
282.4967,804.0
282.5664,873.0
282.6361,822.0
282.7058,892.0
282.7755,802.0
282.8452,882.0
282.9149,778.0
282.9845,923.0
283.0542,810.0
283.1239,883.0
283.1936,769.0
283.2632,881.0
283.3329,797.0
283.4026,923.0
283.4722,839.0
283.5419,922.0
283.6115,842.0
283.6812,938.0
283.7508,873.0
283.8205,931.0
283.8901,835.0
283.9597,881.0
284.0294,855.0
284.099,898.0
284.1686,861.0
284.2383,911.0
284.3079,784.0
284.3775,823.0
284.4471,825.0
284.5168,902.0
284.5864,771.0
284.656,890.0
284.7256,785.0
284.7952,880.0
284.8648,793.0
284.9344,885.0
285.004,789.0
285.0736,896.0
285.1432,746.0
285.2128,870.0
285.2823,800.0
285.3519,910.0
285.4215,778.0
285.4911,847.0
285.5606,799.0
285.6302,870.0
285.6998,787.0
285.7693,883.0
285.8389,769.0
285.9084,849.0
285.978,761.0
286.0475,829.0
286.1171,791.0
286.1866,808.0
286.2562,796.0
286.3257,840.0
286.3952,816.0
286.4648,851.0
286.5343,806.0
286.6039,854.0
286.6733,756.0
286.7429,848.0
286.8124,739.0
286.8819,867.0
286.9514,807.0
287.0209,884.0
287.0904,782.0
287.1599,855.0
287.2294,819.0
287.299,863.0
287.3684,792.0
287.4379,853.0
287.5074,761.0
287.5769,867.0
287.6464,757.0
287.7159,866.0
287.7853,790.0
287.8548,856.0
287.9243,807.0
287.9937,828.0
288.0632,797.0
288.1327,857.0
288.2021,788.0
288.2716,809.0
288.341,770.0
288.4105,860.0
288.4799,812.0
288.5493,828.0
288.6188,754.0
288.6882,859.0
288.7577,784.0
288.8271,842.0
288.8965,756.0
288.9659,897.0
289.0354,793.0
289.1048,864.0
289.1742,763.0
289.2436,844.0
289.313,758.0
289.3824,878.0
289.4518,766.0
289.5212,917.0
289.5906,726.0
289.66,869.0
289.7294,791.0
289.7988,867.0
289.8682,836.0
289.9376,855.0
290.007,802.0
290.0764,881.0
290.1457,821.0
290.2151,840.0
290.2844,763.0
290.3538,891.0
290.4232,788.0
290.4925,842.0
290.5619,780.0
290.6312,831.0
290.7006,761.0
290.7699,890.0
290.8393,773.0
290.9086,902.0
290.978,901.0
291.0473,848.0
291.1166,787.0
291.1859,868.0
291.2553,753.0
291.3246,886.0
291.3939,798.0
291.4632,895.0
291.5325,782.0
291.6018,898.0
291.6712,785.0
291.7405,905.0
291.8098,785.0
291.8791,877.0
291.9484,787.0
292.0176,878.0
292.0869,768.0
292.1562,884.0
292.2255,804.0
292.2948,893.0
292.3641,809.0
292.4334,924.0
292.5026,840.0
292.5719,886.0
292.6412,758.0
292.7104,890.0
292.7797,882.0
292.8489,898.0
292.9182,797.0
292.9875,885.0
293.0567,787.0
293.1259,887.0
293.1952,825.0
293.2644,924.0
293.3336,768.0
293.4029,891.0
293.4721,777.0
293.5413,876.0
293.6106,818.0
293.6798,860.0
293.749,757.0
293.8182,898.0
293.8875,806.0
293.9566,915.0
294.0259,806.0
294.0951,900.0
294.1642,793.0
294.2334,889.0
294.3026,803.0
294.3718,907.0
294.441,788.0
294.5102,924.0
294.5794,810.0
294.6485,897.0
294.7177,795.0
294.7869,892.0
294.8561,800.0
294.9253,901.0
294.9944,790.0
295.0636,919.0
295.1327,822.0
295.2019,890.0
295.271,786.0
295.3402,863.0
295.4093,857.0
295.4785,893.0
295.5476,859.0
295.6168,893.0
295.6859,809.0
295.755,868.0
295.8241,816.0
295.8932,901.0
295.9623,802.0
296.0315,884.0
296.1006,786.0
296.1697,898.0
296.2388,812.0
296.3079,853.0
296.377,858.0
296.4461,937.0
296.5152,829.0
296.5843,856.0
296.6534,784.0
296.7225,891.0
296.7916,802.0
296.8606,890.0
296.9297,800.0
296.9988,884.0
297.0679,807.0
297.137,899.0
297.206,791.0
297.2751,852.0
297.3441,818.0
297.4132,879.0
297.4823,841.0
297.5513,815.0
297.6204,792.0
297.6894,863.0
297.7584,831.0
297.8275,932.0
297.8965,827.0
297.9655,906.0
298.0346,819.0
298.1036,889.0
298.1726,818.0
298.2417,913.0
298.3106,781.0
298.3797,865.0
298.4487,796.0
298.5177,869.0
298.5867,818.0
298.6557,912.0
298.7247,820.0
298.7937,940.0
298.8627,870.0
298.9317,911.0
299.0007,814.0
299.0696,886.0
299.1386,776.0
299.2076,889.0
299.2766,851.0
299.3456,919.0
299.4145,839.0
299.4835,902.0
299.5524,816.0
299.6214,913.0
299.6903,815.0
299.7593,929.0
299.8282,859.0
299.8972,832.0
299.9661,846.0
300.0351,895.0
300.104,844.0
300.173,915.0
300.2419,834.0
300.3108,909.0
300.3797,833.0
300.4487,948.0
300.5176,801.0
300.5865,879.0
300.6554,836.0
300.7243,908.0
300.7932,814.0
300.8621,888.0
300.931,861.0
300.9999,902.0
301.0688,844.0
301.1377,941.0
301.2066,850.0
301.2755,922.0
301.3444,837.0
301.4132,916.0
301.4821,804.0
301.551,947.0
301.6199,875.0
301.6887,930.0
301.7576,838.0
301.8265,938.0
301.8953,853.0
301.9642,905.0
302.033,819.0
302.1019,937.0
302.1707,807.0
302.2396,938.0
302.3084,854.0
302.3772,903.0
302.4461,842.0
302.5149,911.0
302.5837,827.0
302.6526,899.0
302.7214,827.0
302.7902,909.0
302.859,811.0
302.9278,909.0
302.9966,873.0
303.0654,945.0
303.1342,780.0
303.203,861.0
303.2718,806.0
303.3406,946.0
303.4094,792.0
303.4781,908.0
303.547,862.0
303.6158,899.0
303.6845,857.0
303.7533,910.0
303.8221,824.0
303.8908,951.0
303.9596,811.0
304.0284,938.0
304.0971,883.0
304.1659,934.0
304.2346,863.0
304.3034,917.0
304.3721,811.0
304.4409,917.0
304.5096,851.0
304.5784,925.0
304.6471,806.0
304.7158,907.0
304.7845,832.0
304.8533,917.0
304.922,794.0
304.9907,893.0
305.0594,847.0
305.1281,960.0
305.1969,814.0
305.2656,919.0
305.3343,820.0
305.403,889.0
305.4717,838.0
305.5403,905.0
305.609,811.0
305.6778,918.0
305.7464,810.0
305.8151,925.0
305.8838,814.0
305.9525,897.0
306.0211,821.0
306.0898,885.0
306.1585,856.0
306.2271,935.0
306.2958,830.0
306.3645,916.0
306.4331,810.0
306.5017,874.0
306.5704,857.0
306.6391,957.0
306.7077,808.0
306.7763,911.0
306.845,787.0
306.9136,896.0
306.9822,850.0
307.0508,930.0
307.1195,865.0
307.1881,879.0
307.2567,864.0
307.3253,957.0
307.3939,815.0
307.4625,928.0
307.5312,803.0
307.5998,956.0
307.6684,826.0
307.7369,869.0
307.8055,828.0
307.8741,931.0
307.9427,814.0
308.0113,927.0
308.0799,802.0
308.1484,904.0
308.217,789.0
308.2856,873.0
308.3542,817.0
308.4227,911.0
308.4913,798.0
308.5598,914.0
308.6284,786.0
308.6969,922.0
308.7655,837.0
308.834,911.0
308.9026,839.0
308.9711,887.0
309.0396,773.0
309.1082,908.0
309.1767,777.0
309.2452,917.0
309.3138,815.0
309.3823,878.0
309.4508,796.0
309.5193,888.0
309.5878,838.0
309.6563,929.0
309.7249,817.0
309.7933,904.0
309.8618,830.0
309.9303,877.0
309.9988,808.0
310.0673,900.0
310.1358,826.0
310.2043,871.0
310.2728,872.0
310.3412,894.0
310.4097,814.0
310.4781,905.0
310.5466,869.0
310.6151,900.0
310.6836,861.0
310.752,835.0
310.8205,800.0
310.8889,928.0
310.9574,826.0
311.0258,872.0
311.0943,795.0
311.1627,898.0
311.2311,774.0
311.2996,885.0
311.368,800.0
311.4364,863.0
311.5049,807.0
311.5733,921.0
311.6417,804.0
311.7101,896.0
311.7785,839.0
311.8469,851.0
311.9153,858.0
311.9837,922.0
312.0521,796.0
312.1205,905.0
312.1889,775.0
312.2573,857.0
312.3257,771.0
312.3941,898.0
312.4624,822.0
312.5308,827.0
312.5992,752.0
312.6675,883.0
312.7359,773.0
312.8043,857.0
312.8727,761.0
312.941,894.0
313.0093,801.0
313.0777,850.0
313.1461,808.0
313.2144,896.0
313.2827,745.0
313.3511,888.0
313.4194,745.0
313.4877,838.0
313.5561,760.0
313.6244,912.0
313.6927,794.0
313.761,862.0
313.8294,737.0
313.8977,822.0
313.966,740.0
314.0343,879.0
314.1026,773.0
314.1709,854.0
314.2392,773.0
314.3075,866.0
314.3758,785.0
314.4441,868.0
314.5124,767.0
314.5806,860.0
314.6489,749.0
314.7172,870.0
314.7855,808.0
314.8537,831.0
314.922,782.0
314.9903,908.0
315.0585,779.0
315.1268,906.0
315.195,779.0
315.2633,869.0
315.3315,830.0
315.3998,847.0
315.468,777.0
315.5362,917.0
315.6045,776.0
315.6727,857.0
315.7409,789.0
315.8092,880.0
315.8774,816.0
315.9456,906.0
316.0138,830.0
316.082,874.0
316.1502,802.0
316.2184,922.0
316.2867,855.0
316.3549,881.0
316.423,815.0
316.4912,911.0
316.5594,835.0
316.6276,927.0
316.6958,820.0
316.764,889.0
316.8322,803.0
316.9003,875.0
316.9685,839.0
317.0367,960.0
317.1049,832.0
317.173,959.0
317.2411,875.0
317.3093,943.0
317.3774,810.0
317.4456,880.0
317.5137,829.0
317.5819,941.0
317.65,823.0
317.7182,919.0
317.7863,842.0
317.8545,928.0
317.9225,882.0
317.9907,903.0
318.0588,793.0
318.1269,947.0
318.195,864.0
318.2631,905.0
318.3312,839.0
318.3994,908.0
318.4675,825.0
318.5355,920.0
318.6036,860.0
318.6717,939.0
318.7398,828.0
318.8079,928.0
318.876,842.0
318.9441,936.0
319.0121,861.0
319.0802,932.0
319.1483,840.0
319.2164,893.0
319.2844,812.0
319.3525,940.0
319.4205,838.0
319.4886,914.0
319.5566,894.0
319.6247,898.0
319.6927,876.0
319.7608,975.0
319.8288,867.0
319.8968,907.0
319.9648,875.0
320.0329,936.0
320.1009,827.0
320.1689,897.0
320.237,871.0
320.305,935.0
320.373,834.0
320.441,935.0
320.509,842.0
320.577,937.0
320.645,867.0
320.713,931.0
320.781,867.0
320.849,875.0
320.917,800.0
320.985,917.0
321.0529,865.0
321.1209,979.0
321.1889,837.0
321.2568,906.0
321.3248,862.0
321.3928,924.0
321.4608,823.0
321.5287,904.0
321.5966,827.0
321.6646,925.0
321.7325,804.0
321.8005,923.0
321.8684,820.0
321.9364,951.0
322.0043,830.0
322.0722,944.0
322.1401,831.0
322.2081,922.0
322.276,881.0
322.344,947.0
322.4119,860.0
322.4797,889.0
322.5477,805.0
322.6156,892.0
322.6835,799.0
322.7514,916.0
322.8193,830.0
322.8871,918.0
322.955,866.0
323.0229,945.0
323.0908,836.0
323.1588,945.0
323.2266,823.0
323.2945,883.0
323.3623,842.0
323.4302,972.0
323.4981,842.0
323.5659,935.0
323.6338,867.0
323.7016,915.0
323.7695,850.0
323.8373,935.0
323.9052,845.0
323.973,943.0
324.0409,881.0
324.1087,955.0
324.1765,857.0
324.2444,926.0
324.3122,821.0
324.38,962.0
324.4479,865.0
324.5157,968.0
324.5834,861.0
324.6512,928.0
324.7191,913.0
324.7869,920.0
324.8547,916.0
324.9225,948.0
324.9903,894.0
325.058,1026.0
325.1259,840.0
325.1936,942.0
325.2614,838.0
325.3292,947.0
325.397,853.0
325.4647,962.0
325.5325,897.0
325.6002,925.0
325.668,861.0
325.7358,920.0
325.8036,861.0
325.8713,932.0
325.939,860.0
326.0068,918.0
326.0745,848.0
326.1422,950.0
326.21,838.0
326.2777,938.0
326.3455,871.0
326.4132,930.0
326.4809,845.0
326.5486,965.0
326.6164,835.0
326.6841,927.0
326.7518,859.0
326.8195,944.0
326.8872,856.0
326.9549,983.0
327.0226,805.0
327.0903,959.0
327.158,848.0
327.2256,898.0
327.2933,883.0
327.361,950.0
327.4287,839.0
327.4964,956.0
327.5641,863.0
327.6317,929.0
327.6994,827.0
327.767,981.0
327.8347,850.0
327.9023,947.0
327.97,880.0
328.0376,905.0
328.1053,862.0
328.1729,925.0
328.2406,897.0
328.3082,940.0
328.3759,884.0
328.4435,899.0
328.5111,874.0
328.5787,940.0
328.6463,836.0
328.7139,936.0
328.7816,839.0
328.8492,949.0
328.9168,806.0
328.9843,884.0
329.052,810.0
329.1196,901.0
329.1872,832.0
329.2548,917.0
329.3224,820.0
329.3899,911.0
329.4575,842.0
329.5251,920.0
329.5927,886.0
329.6602,910.0
329.7278,851.0
329.7953,917.0
329.8629,822.0
329.9305,925.0
329.998,833.0
330.0656,899.0
330.1331,840.0
330.2007,909.0
330.2682,780.0
330.3358,878.0
330.4033,821.0
330.4708,888.0
330.5383,832.0
330.6059,908.0
330.6734,815.0
330.7409,896.0
330.8084,838.0
330.876,904.0
330.9435,832.0
331.011,887.0
331.0784,778.0
331.1459,863.0
331.2134,788.0
331.2809,856.0
331.3484,843.0
331.4159,861.0
331.4834,815.0
331.5508,902.0
331.6183,782.0
331.6858,883.0
331.7533,788.0
331.8207,905.0
331.8882,819.0
331.9557,903.0
332.0231,821.0
332.0906,878.0
332.1581,800.0
332.2255,855.0
332.2929,825.0
332.3604,920.0
332.4278,831.0
332.4952,854.0
332.5627,817.0
332.6301,896.0
332.6975,808.0
332.7649,881.0
332.8323,787.0
332.8997,890.0
332.9672,836.0
333.0346,866.0
333.102,812.0
333.1694,903.0
333.2368,829.0
333.3042,880.0
333.3716,787.0
333.439,924.0
333.5063,811.0
333.5737,906.0
333.6411,836.0
333.7085,901.0
333.7758,808.0
333.8432,931.0
333.9106,807.0
333.9779,896.0
334.0453,762.0
334.1126,932.0
334.18,825.0
334.2473,947.0
334.3147,848.0
334.382,885.0
334.4494,834.0
334.5167,926.0
334.584,857.0
334.6514,904.0
334.7187,792.0
334.786,951.0
334.8533,839.0
334.9206,898.0
334.9879,788.0
335.0553,902.0
335.1226,759.0
335.1899,893.0
335.2572,833.0
335.3245,936.0
335.3918,817.0
335.459,943.0
335.5263,834.0
335.5936,908.0
335.6609,818.0
335.7282,922.0
335.7954,859.0
335.8627,939.0
335.93,850.0
335.9973,929.0
336.0645,791.0
336.1318,877.0
336.199,845.0
336.2662,921.0
336.3335,820.0
336.4008,901.0
336.468,760.0
336.5352,906.0
336.6024,830.0
336.6697,946.0
336.7369,852.0
336.8041,880.0
336.8714,791.0
336.9386,921.0
337.0058,789.0
337.073,882.0
337.1402,802.0
337.2074,867.0
337.2746,848.0
337.3418,890.0
337.409,803.0
337.4762,905.0
337.5434,827.0
337.6106,864.0
337.6777,779.0
337.7449,873.0
337.8121,802.0
337.8792,843.0
337.9464,826.0
338.0135,885.0
338.0807,800.0
338.1479,897.0
338.2151,805.0
338.2822,889.0
338.3493,834.0
338.4165,922.0
338.4836,834.0
338.5508,938.0
338.6179,808.0
338.6851,877.0
338.7521,813.0
338.8193,947.0
338.8864,815.0
338.9535,894.0
339.0206,806.0
339.0878,848.0
339.1548,777.0
339.222,929.0
339.289,829.0
339.3561,939.0
339.4233,792.0
339.4904,936.0
339.5574,828.0
339.6245,872.0
339.6916,799.0
339.7587,870.0
339.8257,808.0
339.8929,884.0
339.9599,820.0
340.0269,895.0
340.094,797.0
340.1611,892.0
340.2281,792.0
340.2952,880.0
340.3622,813.0
340.4293,876.0
340.4963,818.0
340.5633,832.0
340.6304,792.0
340.6974,880.0
340.7645,778.0
340.8315,917.0
340.8985,826.0
340.9655,842.0
341.0325,808.0
341.0995,883.0
341.1665,808.0
341.2335,889.0
341.3005,807.0
341.3675,876.0
341.4345,749.0
341.5015,832.0
341.5685,770.0
341.6355,875.0
341.7025,856.0
341.7694,870.0
341.8364,842.0
341.9034,895.0
341.9704,841.0
342.0373,902.0
342.1043,815.0
342.1712,909.0
342.2382,801.0
342.3051,886.0
342.3721,833.0
342.4391,939.0
342.506,822.0
342.5729,854.0
342.6398,797.0
342.7068,870.0
342.7737,779.0
342.8406,891.0
342.9076,799.0
342.9745,852.0
343.0414,837.0
343.1083,897.0
343.1752,835.0
343.2421,895.0
343.309,818.0
343.3759,884.0
343.4428,844.0
343.5097,919.0
343.5766,807.0
343.6434,891.0
343.7104,820.0
343.7772,870.0
343.8441,783.0
343.9109,865.0
343.9778,815.0
344.0447,912.0
344.1116,837.0
344.1784,899.0
344.2453,814.0
344.3121,913.0
344.3789,798.0
344.4458,932.0
344.5127,817.0
344.5795,925.0
344.6463,808.0
344.7131,877.0
344.78,824.0
344.8468,912.0
344.9136,764.0
344.9805,942.0
345.0473,800.0
345.1141,900.0
345.1809,792.0
345.2477,922.0
345.3145,831.0
345.3813,898.0
345.4481,826.0
345.5149,928.0
345.5816,831.0
345.6484,939.0
345.7152,825.0
345.782,943.0
345.8488,818.0
345.9155,889.0
345.9823,827.0
346.049,884.0
346.1158,819.0
346.1826,879.0
346.2493,858.0
346.3161,911.0
346.3828,862.0
346.4496,933.0
346.5163,859.0
346.5831,875.0
346.6498,805.0
346.7165,929.0
346.7832,812.0
346.85,889.0
346.9167,831.0
346.9834,908.0
347.0501,826.0
347.1168,834.0
347.1835,834.0
347.2502,931.0
347.3169,830.0
347.3836,883.0
347.4503,823.0
347.517,873.0
347.5837,817.0
347.6504,923.0
347.717,825.0
347.7837,931.0
347.8504,822.0
347.9171,892.0
347.9837,803.0
348.0504,946.0
348.1171,811.0
348.1837,893.0
348.2504,848.0
348.317,883.0
348.3837,829.0
348.4503,955.0
348.5169,808.0
348.5836,962.0
348.6502,801.0
348.7169,898.0
348.7835,835.0
348.8501,902.0
348.9167,871.0
348.9833,944.0
349.0499,877.0
349.1165,927.0
349.1832,855.0
349.2498,913.0
349.3163,846.0
349.3829,878.0
349.4495,799.0
349.5161,923.0
349.5827,824.0
349.6493,993.0
349.7159,813.0
349.7824,923.0
349.849,851.0
349.9156,948.0
349.9821,868.0
350.0487,936.0
350.1153,881.0
350.1818,929.0
350.2484,858.0
350.3149,936.0
350.3814,806.0
350.448,936.0
350.5146,816.0
350.5811,915.0
350.6476,880.0
350.7141,971.0
350.7807,866.0
350.8472,930.0
350.9137,801.0
350.9802,926.0
351.0467,877.0
351.1132,929.0
351.1797,873.0
351.2462,936.0
351.3127,857.0
351.3792,954.0
351.4457,824.0
351.5122,900.0
351.5787,902.0
351.6451,938.0
351.7116,841.0
351.7781,978.0
351.8446,892.0
351.911,921.0
351.9775,843.0
352.044,974.0
352.1104,863.0
352.1769,980.0
352.2433,910.0
352.3098,961.0
352.3762,861.0
352.4427,939.0
352.5091,872.0
352.5755,967.0
352.642,852.0
352.7084,958.0
352.7748,895.0
352.8412,992.0
352.9077,831.0
352.9741,962.0
353.0405,863.0
353.1068,989.0
353.1732,870.0
353.2396,967.0
353.306,897.0
353.3724,979.0
353.4388,930.0
353.5052,965.0
353.5716,909.0
353.638,1004.0
353.7043,927.0
353.7707,1001.0
353.8371,878.0
353.9034,1006.0
353.9698,898.0
354.0362,993.0
354.1025,956.0
354.1689,1025.0
354.2352,907.0
354.3016,1007.0
354.3679,938.0
354.4342,1054.0
354.5005,940.0
354.5669,1053.0
354.6332,927.0
354.6996,1051.0
354.7659,951.0
354.8322,1018.0
354.8985,942.0
354.9648,1019.0
355.0311,957.0
355.0974,1045.0
355.1637,981.0
355.23,1031.0
355.2963,913.0
355.3625,978.0
355.4289,904.0
355.4952,1036.0
355.5614,925.0
355.6277,1028.0
355.694,961.0
355.7603,1036.0
355.8265,984.0
355.8928,990.0
355.959,932.0
356.0253,1024.0
356.0916,898.0
356.1578,1040.0
356.224,885.0
356.2903,1010.0
356.3565,950.0
356.4228,1031.0
356.489,892.0
356.5552,1052.0
356.6214,961.0
356.6876,973.0
356.7539,927.0
356.8201,1024.0
356.8863,892.0
356.9525,986.0
357.0187,856.0
357.0849,983.0
357.1511,854.0
357.2173,978.0
357.2835,875.0
357.3497,988.0
357.4158,907.0
357.482,967.0
357.5482,927.0
357.6144,999.0
357.6805,994.0
357.7467,1063.0
357.8128,977.0
357.879,1113.0
357.9452,1025.0
358.0114,1177.0
358.0775,1113.0
358.1436,1222.0
358.2097,1204.0
358.2759,1358.0
358.342,1342.0
358.4082,1402.0
358.4743,1255.0
358.5404,1368.0
358.6065,1159.0
358.6726,1121.0
358.7387,1027.0
358.8049,1145.0
358.871,1078.0
358.9371,1207.0
359.0032,1000.0
359.0693,1035.0
359.1353,858.0
359.2014,911.0
359.2676,877.0
359.3336,964.0
359.3997,813.0
359.4658,887.0
359.5318,847.0
359.5979,924.0
359.664,830.0
359.7301,912.0
359.7961,831.0
359.8622,877.0
359.9282,802.0
359.9943,897.0
360.0603,798.0
360.1264,901.0
360.1924,836.0
360.2585,905.0
360.3244,848.0
360.3905,883.0
360.4565,810.0
360.5225,922.0
360.5885,890.0
360.6546,920.0
360.7206,825.0
360.7866,921.0
360.8526,825.0
360.9185,893.0
360.9846,828.0
361.0506,886.0
361.1165,794.0
361.1825,848.0
361.2485,836.0
361.3145,944.0
361.3805,837.0
361.4465,901.0
361.5124,812.0
361.5784,896.0
361.6443,842.0
361.7103,880.0
361.7762,778.0
361.8422,908.0
361.9082,820.0
361.9741,857.0
362.04,814.0
362.106,909.0
362.1719,820.0
362.2379,892.0
362.3038,814.0
362.3697,915.0
362.4356,846.0
362.5015,940.0
362.5675,828.0
362.6334,931.0
362.6993,821.0
362.7652,937.0
362.8311,834.0
362.8969,914.0
362.9629,795.0
363.0287,970.0
363.0947,860.0
363.1605,939.0
363.2264,821.0
363.2923,893.0
363.3582,815.0
363.424,888.0
363.4899,801.0
363.5557,902.0
363.6216,850.0
363.6874,913.0
363.7533,848.0
363.8191,896.0
363.885,837.0
363.9508,925.0
364.0167,764.0
364.0825,950.0
364.1483,822.0
364.2142,902.0
364.28,758.0
364.3458,924.0
364.4116,817.0
364.4774,891.0
364.5432,869.0
364.609,875.0
364.6748,804.0
364.7406,910.0
364.8065,859.0
364.8722,914.0
364.938,835.0
365.0038,890.0
365.0696,841.0
365.1354,939.0
365.2011,793.0
365.2669,889.0
365.3326,791.0
365.3984,926.0
365.4642,811.0
365.5299,936.0
365.5957,792.0
365.6614,897.0
365.7272,863.0
365.7929,905.0
365.8587,820.0
365.9244,902.0
365.9902,826.0
366.0559,925.0
366.1216,836.0
366.1873,920.0
366.253,819.0
366.3188,913.0
366.3845,838.0
366.4502,906.0
366.5159,836.0
366.5816,911.0
366.6473,832.0
366.713,891.0
366.7787,799.0
366.8444,920.0
366.91,809.0
366.9757,892.0
367.0414,817.0
367.1071,901.0
367.1727,816.0
367.2384,866.0
367.3041,846.0
367.3697,898.0
367.4354,768.0
367.501,902.0
367.5667,769.0
367.6323,873.0
367.698,845.0
367.7636,906.0
367.8292,805.0
367.8948,850.0
367.9605,814.0
368.0261,854.0
368.0918,757.0
368.1573,912.0
368.223,771.0
368.2885,911.0
368.3542,769.0
368.4198,864.0
368.4854,794.0
368.551,851.0
368.6165,711.0
368.6821,844.0
368.7477,796.0
368.8133,877.0
368.8789,809.0
368.9445,907.0
369.01,760.0
369.0756,898.0
369.1411,828.0
369.2067,880.0
369.2723,787.0
369.3379,844.0
369.4034,791.0
369.4689,836.0
369.5345,772.0
369.6,841.0
369.6656,742.0
369.7311,865.0
369.7966,738.0
369.8622,904.0
369.9277,794.0
369.9932,865.0
370.0587,752.0
370.1242,869.0
370.1897,756.0
370.2552,857.0
370.3207,746.0
370.3862,836.0
370.4517,770.0
370.5172,860.0
370.5827,784.0
370.6482,883.0
370.7136,814.0
370.7791,859.0
370.8446,824.0
370.9101,848.0
370.9756,751.0
371.041,877.0
371.1064,761.0
371.1719,830.0
371.2373,788.0
371.3028,889.0
371.3683,796.0
371.4337,876.0
371.4991,831.0
371.5646,884.0
371.63,806.0
371.6954,910.0
371.7608,788.0
371.8263,891.0
371.8917,792.0
371.9571,829.0
372.0225,779.0
372.0879,874.0
372.1533,809.0
372.2187,904.0
372.2841,808.0
372.3495,925.0
372.4149,859.0
372.4803,918.0
372.5457,810.0
372.611,898.0
372.6764,790.0
372.7418,919.0
372.8071,833.0
372.8725,915.0
372.9379,837.0
373.0032,899.0
373.0686,869.0
373.1339,898.0
373.1992,819.0
373.2646,922.0
373.3299,809.0
373.3953,890.0
373.4606,811.0
373.5259,917.0
373.5912,819.0
373.6566,892.0
373.7219,813.0
373.7872,887.0
373.8525,852.0
373.9178,941.0
373.9831,872.0
374.0484,906.0
374.1137,839.0
374.179,930.0
374.2443,828.0
374.3096,946.0
374.3749,797.0
374.4401,941.0
374.5054,817.0
374.5706,960.0
374.636,871.0
374.7012,932.0
374.7665,884.0
374.8318,970.0
374.897,834.0
374.9622,903.0
375.0275,830.0
375.0927,924.0
375.158,867.0
375.2232,923.0
375.2885,851.0
375.3537,1007.0
375.4189,812.0
375.4841,925.0
375.5493,849.0
375.6145,949.0
375.6797,861.0
375.745,962.0
375.8101,808.0
375.8754,934.0
375.9406,820.0
376.0057,986.0
376.071,873.0
376.1361,994.0
376.2013,903.0
376.2665,938.0
376.3317,885.0
376.3969,940.0
376.462,843.0
376.5272,969.0
376.5923,927.0
376.6575,990.0
376.7226,884.0
376.7878,935.0
376.8529,848.0
376.9181,1013.0
376.9832,885.0
377.0483,938.0
377.1135,871.0
377.1786,988.0
377.2437,906.0
377.3089,972.0
377.374,937.0
377.4391,921.0
377.5042,932.0
377.5693,933.0
377.6344,886.0
377.6995,1032.0
377.7646,916.0
377.8297,980.0
377.8948,918.0
377.9599,939.0
378.025,916.0
378.09,1022.0
378.1551,918.0
378.2202,1031.0
378.2852,953.0
378.3503,1054.0
378.4154,941.0
378.4804,973.0
378.5455,973.0
378.6105,1002.0
378.6755,979.0
378.7406,976.0
378.8057,998.0
378.8707,1060.0
378.9357,975.0
379.0008,1099.0
379.0658,1032.0
379.1308,1091.0
379.1958,1026.0
379.2609,1033.0
379.3259,1033.0
379.3908,1100.0
379.4558,1031.0
379.5208,1063.0
379.5858,1058.0
379.6509,1080.0
379.7159,1068.0
379.7808,1107.0
379.8458,997.0
379.9108,1167.0
379.9758,1052.0
380.0407,1128.0
380.1057,1057.0
380.1707,1158.0
380.2356,1111.0
380.3006,1152.0
380.3655,1140.0
380.4305,1166.0
380.4955,1051.0
380.5604,1167.0
380.6253,1066.0
380.6902,1214.0
380.7552,1113.0
380.8201,1217.0
380.885,1165.0
380.95,1213.0
381.0149,1201.0
381.0798,1308.0
381.1447,1168.0
381.2096,1258.0
381.2745,1222.0
381.3394,1276.0
381.4043,1208.0
381.4692,1270.0
381.5341,1193.0
381.5989,1293.0
381.6638,1236.0
381.7287,1302.0
381.7936,1209.0
381.8585,1394.0
381.9233,1232.0
381.9882,1400.0
382.053,1247.0
382.1179,1346.0
382.1828,1313.0
382.2476,1408.0
382.3124,1308.0
382.3773,1399.0
382.4421,1343.0
382.507,1462.0
382.5718,1302.0
382.6366,1460.0
382.7014,1329.0
382.7663,1379.0
382.8311,1297.0
382.8959,1487.0
382.9607,1318.0
383.0255,1406.0
383.0903,1397.0
383.1551,1508.0
383.2199,1403.0
383.2847,1433.0
383.3495,1369.0
383.4143,1478.0
383.479,1414.0
383.5438,1461.0
383.6086,1374.0
383.6734,1456.0
383.7381,1385.0
383.8029,1517.0
383.8676,1432.0
383.9324,1509.0
383.9972,1406.0
384.0619,1560.0
384.1266,1540.0
384.1914,1542.0
384.2562,1502.0
384.3209,1541.0
384.3856,1490.0
384.4503,1628.0
384.515,1613.0
384.5797,1701.0
384.6445,1682.0
384.7092,1831.0
384.7739,1706.0
384.8386,1934.0
384.9033,1964.0
384.968,2047.0
385.0327,1887.0
385.0974,1997.0
385.162,1739.0
385.2267,1880.0
385.2914,1871.0
385.3561,2103.0
385.4208,1932.0
385.4854,1839.0
385.5501,1682.0
385.6147,1747.0
385.6794,1725.0
385.7441,1858.0
385.8087,1887.0
385.8734,1985.0
385.938,1903.0
386.0027,2132.0
386.0673,2225.0
386.1319,2129.0
386.1966,1700.0
386.2612,1651.0
386.3258,1560.0
386.3904,1678.0
386.455,1546.0
386.5196,1762.0
386.5843,1819.0
386.6489,1920.0
386.7135,1941.0
386.778,2127.0
386.8426,2235.0
386.9072,2391.0
386.9718,2574.0
387.0364,2752.0
387.101,2329.0
387.1655,1655.0
387.2301,1411.0
387.2946,1487.0
387.3593,1346.0
387.4238,1476.0
387.4884,1411.0
387.5529,1553.0
387.6175,1563.0
387.682,1777.0
387.7466,1766.0
387.8111,1989.0
387.8756,2106.0
387.9402,2441.0
388.0047,2554.0
388.0692,2761.0
388.1337,2996.0
388.1982,3243.0
388.2628,2832.0
388.3272,2041.0
388.3918,1330.0
388.4563,1180.0
388.5208,985.0
388.5852,974.0
388.6497,896.0
388.7142,909.0
388.7787,870.0
388.8432,936.0
388.9077,835.0
388.9721,924.0
389.0366,828.0
389.1011,949.0
389.1655,812.0
389.23,901.0
389.2944,848.0
389.3589,916.0
389.4233,840.0
389.4878,916.0
389.5522,810.0
389.6167,910.0
389.6811,830.0
389.7455,922.0
389.8099,866.0
389.8744,919.0
389.9388,887.0
390.0032,923.0
390.0676,879.0
390.132,899.0
390.1964,871.0
390.2608,887.0
390.3252,825.0
390.3896,849.0
390.454,831.0
390.5184,913.0
390.5827,819.0
390.6471,922.0
390.7115,874.0
390.7759,959.0
390.8402,846.0
390.9046,943.0
390.9689,885.0
391.0333,885.0
391.0977,857.0
391.162,963.0
391.2264,847.0
391.2907,958.0
391.355,878.0
391.4193,942.0
391.4837,851.0
391.548,959.0
391.6123,883.0
391.6767,955.0
391.741,873.0
391.8053,945.0
391.8696,811.0
391.9339,931.0
391.9982,893.0
392.0625,894.0
392.1268,876.0
392.1911,979.0
392.2553,839.0
392.3196,942.0
392.3839,877.0
392.4482,936.0
392.5125,837.0
392.5767,953.0
392.641,861.0
392.7053,936.0
392.7695,846.0
392.8338,978.0
392.898,938.0
392.9622,970.0
393.0265,894.0
393.0908,975.0
393.155,961.0
393.2192,1021.0
393.2834,991.0
393.3477,1001.0
393.4118,947.0
393.476,986.0
393.5403,880.0
393.6045,1017.0
393.6687,886.0
393.7329,937.0
393.7971,861.0
393.8613,936.0
393.9255,860.0
393.9897,963.0
394.0539,938.0
394.118,970.0
394.1822,852.0
394.2464,924.0
394.3105,909.0
394.3747,947.0
394.4389,879.0
394.503,898.0
394.5672,848.0
394.6313,1024.0
394.6954,867.0
394.7596,943.0
394.8238,857.0
394.8879,902.0
394.952,842.0
395.0161,917.0
395.0803,855.0
395.1444,970.0
395.2085,803.0
395.2726,913.0
395.3367,882.0
395.4008,925.0
395.4649,817.0
395.529,913.0
395.5931,856.0
395.6572,965.0
395.7213,832.0
395.7854,916.0
395.8495,824.0
395.9135,892.0
395.9776,856.0
396.0417,920.0
396.1057,810.0
396.1698,896.0
396.2339,830.0
396.2979,890.0
396.362,818.0
396.426,915.0
396.4901,854.0
396.5541,907.0
396.6181,877.0
396.6821,877.0
396.7462,883.0
396.8102,905.0
396.8743,867.0
396.9383,924.0
397.0023,818.0
397.0662,867.0
397.1302,822.0
397.1943,863.0
397.2583,842.0
397.3223,907.0
397.3862,807.0
397.4502,887.0
397.5142,801.0
397.5782,887.0
397.6422,797.0
397.7061,835.0
397.7701,817.0
397.8341,890.0
397.898,791.0
397.962,898.0
398.0259,805.0
398.0899,892.0
398.1538,827.0
398.2178,923.0
398.2817,849.0
398.3456,900.0
398.4096,816.0
398.4735,863.0
398.5374,821.0
398.6013,958.0
398.6653,838.0
398.7292,894.0
398.7931,795.0
398.857,874.0
398.9209,817.0
398.9848,939.0
399.0487,829.0
399.1125,905.0
399.1765,837.0
399.2404,912.0
399.3042,843.0
399.3681,940.0
399.432,840.0
399.4958,908.0
399.5597,842.0
399.6236,965.0
399.6875,906.0
399.7513,912.0
399.8152,892.0
399.879,937.0
399.9428,842.0
400.0067,997.0
400.0705,842.0
400.1343,980.0
400.1982,838.0
400.262,943.0
400.3258,852.0
400.3896,895.0
400.4534,824.0
400.5172,907.0
400.581,805.0
400.6448,934.0
400.7086,857.0
400.7724,894.0
400.8362,831.0
400.9,932.0
400.9638,869.0
401.0276,926.0
401.0913,889.0
401.1551,929.0
401.2189,838.0
401.2826,960.0
401.3464,869.0
401.4102,950.0
401.4739,852.0
401.5376,929.0
401.6014,876.0
401.6651,946.0
401.7289,847.0
401.7926,934.0
401.8564,844.0
401.92,940.0
401.9838,841.0
402.0475,965.0
402.1112,861.0
402.175,924.0
402.2386,806.0
402.3023,950.0
402.366,892.0
402.4297,986.0
402.4934,886.0
402.5571,967.0
402.6208,883.0
402.6845,962.0
402.7482,831.0
402.8118,967.0
402.8755,843.0
402.9392,951.0
403.0028,881.0
403.0665,973.0
403.1301,893.0
403.1938,913.0
403.2574,893.0
403.3211,1000.0
403.3847,864.0
403.4484,950.0
403.512,862.0
403.5756,950.0
403.6393,904.0
403.7029,936.0
403.7665,911.0
403.8301,987.0
403.8937,887.0
403.9573,912.0
404.0209,934.0
404.0845,963.0
404.1481,855.0
404.2117,959.0
404.2753,894.0
404.3389,943.0
404.4024,849.0
404.466,945.0
404.5296,881.0
404.5932,999.0
404.6567,939.0
404.7203,922.0
404.7838,842.0
404.8474,980.0
404.9109,845.0
404.9745,945.0
405.0381,877.0
405.1016,1001.0
405.1651,870.0
405.2286,956.0
405.2922,884.0
405.3557,940.0
405.4193,882.0
405.4828,983.0
405.5462,892.0
405.6097,926.0
405.6733,902.0
405.7368,967.0
405.8003,913.0
405.8638,912.0
405.9272,893.0
405.9907,1005.0
406.0542,861.0
406.1177,964.0
406.1812,898.0
406.2446,960.0
406.3081,900.0
406.3716,960.0
406.435,906.0
406.4985,975.0
406.562,868.0
406.6254,986.0
406.6888,918.0
406.7523,1001.0
406.8157,893.0
406.8791,948.0
406.9426,899.0
407.006,955.0
407.0694,938.0
407.1328,1008.0
407.1962,872.0
407.2597,965.0
407.3231,897.0
407.3865,1023.0
407.4499,902.0
407.5133,1010.0
407.5767,932.0
407.64,966.0
407.7034,887.0
407.7668,965.0
407.8302,933.0
407.8936,1020.0
407.9569,879.0
408.0203,1047.0
408.0836,902.0
408.147,1038.0
408.2104,944.0
408.2737,1009.0
408.3371,937.0
408.4004,981.0
408.4637,925.0
408.5271,1064.0
408.5905,928.0
408.6537,1012.0
408.7171,910.0
408.7804,1036.0
408.8437,928.0
408.907,1012.0
408.9703,908.0
409.0336,1019.0
409.0969,942.0
409.1602,1030.0
409.2235,960.0
409.2868,996.0
409.3501,925.0
409.4134,1053.0
409.4767,965.0
409.5399,1034.0
409.6032,944.0
409.6665,984.0
409.7297,904.0
409.793,1006.0
409.8563,915.0
409.9195,1002.0
409.9827,950.0
410.046,998.0
410.1092,961.0
410.1725,1051.0
410.2357,963.0
410.299,997.0
410.3622,939.0
410.4254,960.0
410.4886,937.0
410.5518,1009.0
410.615,924.0
410.6782,997.0
410.7414,916.0
410.8046,1026.0
410.8678,918.0
410.931,1032.0
410.9942,918.0
411.0574,1038.0
411.1205,897.0
411.1837,1017.0
411.2469,960.0
411.3101,925.0
411.3733,903.0
411.4364,966.0
411.4995,864.0
411.5627,1010.0
411.6259,906.0
411.689,991.0
411.7521,883.0
411.8153,992.0
411.8784,899.0
411.9415,969.0
412.0046,923.0
412.0678,995.0
412.1309,838.0
412.194,957.0
412.2571,924.0
412.3203,983.0
412.3833,915.0
412.4464,1019.0
412.5096,942.0
412.5727,964.0
412.6357,913.0
412.6988,979.0
412.7619,929.0
412.825,989.0
412.8881,882.0
412.9511,954.0
413.0142,919.0
413.0772,948.0
413.1403,938.0
413.2033,1005.0
413.2664,907.0
413.3294,985.0
413.3925,860.0
413.4555,1027.0
413.5186,912.0
413.5816,973.0
413.6446,952.0
413.7076,978.0
413.7707,861.0
413.8337,1024.0
413.8967,890.0
413.9597,976.0
414.0227,921.0
414.0857,970.0
414.1487,906.0
414.2117,967.0
414.2747,918.0
414.3376,1040.0
414.4006,925.0
414.4636,1001.0
414.5266,895.0
414.5896,997.0
414.6525,980.0
414.7155,1072.0
414.7784,962.0
414.8414,1023.0
414.9044,1046.0
414.9673,1102.0
415.0303,1016.0
415.0932,1117.0
415.1561,1035.0
415.2191,1083.0
415.282,995.0
415.3449,1086.0
415.4079,934.0
415.4708,1031.0
415.5336,1001.0
415.5966,1113.0
415.6595,1039.0
415.7224,1121.0
415.7853,989.0
415.8482,988.0
415.9111,944.0
415.9739,1015.0
416.0368,934.0
416.0997,1032.0
416.1626,956.0
416.2255,1032.0
416.2883,1009.0
416.3512,1015.0
416.414,988.0
416.4769,1084.0
416.5397,994.0
416.6026,1112.0
416.6654,1045.0
416.7283,1110.0
416.7911,978.0
416.8539,987.0
416.9167,944.0
416.9796,1064.0
417.0424,1003.0
417.1052,1019.0
417.168,931.0
417.2308,1004.0
417.2936,974.0
417.3564,1021.0
417.4193,937.0
417.4821,1007.0
417.5448,944.0
417.6076,1061.0
417.6704,994.0
417.7332,1064.0
417.796,987.0
417.8587,1110.0
417.9215,1082.0
417.9842,1147.0
418.047,1022.0
418.1098,1003.0
418.1725,961.0
418.2353,1013.0
418.298,905.0
418.3607,1021.0
418.4235,911.0
418.4862,1004.0
418.549,924.0
418.6117,1012.0
418.6744,862.0
418.7371,1005.0
418.7998,906.0
418.8625,1006.0
418.9252,870.0
418.9879,987.0
419.0507,922.0
419.1133,1043.0
419.176,937.0
419.2387,1051.0
419.3014,973.0
419.3641,1047.0
419.4268,1067.0
419.4894,1102.0
419.5521,1093.0
419.6147,1168.0
419.6774,993.0
419.7401,987.0
419.8027,917.0
419.8654,962.0
419.928,858.0
419.9906,1008.0
420.0533,897.0
420.1159,946.0
420.1785,901.0
420.2411,931.0
420.3038,864.0
420.3664,974.0
420.429,855.0
420.4916,982.0
420.5542,861.0
420.6168,938.0
420.6794,881.0
420.742,921.0
420.8046,883.0
420.8672,924.0
420.9297,885.0
420.9923,992.0
421.0549,880.0
421.1175,1033.0
421.18,938.0
421.2426,996.0
421.3052,942.0
421.3677,1046.0
421.4303,1016.0
421.4928,1099.0
421.5554,926.0
421.6179,961.0
421.6804,873.0
421.743,876.0
421.8055,875.0
421.868,897.0
421.9305,824.0
421.993,870.0
422.0556,836.0
422.1181,895.0
422.1806,758.0
422.2431,926.0
422.3055,831.0
422.368,884.0
422.4305,823.0
422.493,899.0
422.5555,801.0
422.618,903.0
422.6805,824.0
422.7429,879.0
422.8054,843.0
422.8679,894.0
422.9303,807.0
422.9928,878.0
423.0552,841.0
423.1177,921.0
423.1801,809.0
423.2425,911.0
423.305,839.0
423.3674,874.0
423.4298,854.0
423.4922,912.0
423.5547,799.0
423.617,921.0
423.6795,819.0
423.7419,889.0
423.8043,878.0
423.8667,927.0
423.9291,874.0
423.9915,959.0
424.0538,872.0
424.1163,881.0
424.1786,871.0
424.241,897.0
424.3034,891.0
424.3658,926.0
424.4281,876.0
424.4905,969.0
424.5529,884.0
424.6152,945.0
424.6775,821.0
424.7399,952.0
424.8022,902.0
424.8646,940.0
424.9269,886.0
424.9892,1008.0
425.0515,928.0
425.1139,941.0
425.1762,880.0
425.2385,999.0
425.3008,888.0
425.3631,950.0
425.4254,896.0
425.4877,984.0
425.55,867.0
425.6123,990.0
425.6746,913.0
425.7369,970.0
425.7992,934.0
425.8614,925.0
425.9237,905.0
425.9859,982.0
426.0482,927.0
426.1105,979.0
426.1727,900.0
426.235,986.0
426.2972,941.0
426.3595,969.0
426.4217,879.0
426.4839,1000.0
426.5462,911.0
426.6084,924.0
426.6706,942.0
426.7328,997.0
426.795,928.0
426.8573,983.0
426.9195,870.0
426.9817,945.0
427.0439,858.0
427.1061,938.0
427.1683,935.0
427.2305,967.0
427.2927,924.0
427.3549,931.0
427.417,881.0
427.4792,1001.0
427.5413,897.0
427.6035,1006.0
427.6657,873.0
427.7278,950.0
427.79,894.0
427.8521,998.0
427.9142,833.0
427.9764,960.0
428.0386,873.0
428.1007,925.0
428.1628,891.0
428.2249,946.0
428.287,892.0
428.3492,966.0
428.4113,842.0
428.4734,935.0
428.5355,893.0
428.5976,950.0
428.6597,877.0
428.7218,947.0
428.7839,833.0
428.846,942.0
428.9081,853.0
428.9702,928.0
429.0322,803.0
429.0943,884.0
429.1563,883.0
429.2184,964.0
429.2805,880.0
429.3425,941.0
429.4046,852.0
429.4666,939.0
429.5287,856.0
429.5908,916.0
429.6528,838.0
429.7148,950.0
429.7768,799.0
429.8388,896.0
429.9008,832.0
429.9629,859.0
430.0249,857.0
430.0869,893.0
430.1489,804.0
430.2109,908.0
430.2729,793.0
430.3349,894.0
430.3969,882.0
430.4589,898.0
430.5208,840.0
430.5828,916.0
430.6448,799.0
430.7068,937.0
430.7688,823.0
430.8307,888.0
430.8926,854.0
430.9546,871.0
431.0165,802.0
431.0785,925.0
431.1404,788.0
431.2024,925.0
431.2643,853.0
431.3262,951.0
431.3881,822.0
431.4501,882.0
431.512,812.0
431.5739,930.0
431.6358,799.0
431.6977,905.0
431.7596,813.0
431.8215,880.0
431.8834,781.0
431.9453,889.0
432.0072,814.0
432.0691,894.0
432.131,788.0
432.1928,932.0
432.2547,776.0
432.3165,855.0
432.3784,785.0
432.4403,876.0
432.5021,812.0
432.564,852.0
432.6258,787.0
432.6876,860.0
432.7495,756.0
432.8113,876.0
432.8732,748.0
432.935,859.0
432.9968,750.0
433.0586,878.0
433.1204,796.0
433.1823,900.0
433.2441,771.0
433.3059,895.0
433.3677,829.0
433.4295,860.0
433.4912,782.0
433.5531,889.0
433.6148,789.0
433.6766,872.0
433.7384,762.0
433.8001,863.0
433.8619,776.0
433.9237,934.0
433.9854,756.0
434.0472,855.0
434.1089,795.0
434.1707,852.0
434.2324,851.0
434.2942,924.0
434.3559,797.0
434.4177,885.0
434.4794,872.0
434.5411,901.0
434.6028,818.0
434.6645,848.0
434.7263,826.0
434.788,900.0
434.8497,874.0
434.9113,887.0
434.973,794.0
435.0347,905.0
435.0965,804.0
435.1581,917.0
435.2198,787.0
435.2815,887.0
435.3431,788.0
435.4048,876.0
435.4665,818.0
435.5282,903.0
435.5898,835.0
435.6515,928.0
435.7131,822.0
435.7747,917.0
435.8363,807.0
435.898,887.0
435.9597,800.0
436.0213,951.0
436.0829,840.0
436.1445,973.0
436.2061,869.0
436.2678,926.0
436.3294,957.0
436.391,980.0
436.4525,896.0
436.5141,884.0
436.5757,853.0
436.6373,884.0
436.6989,790.0
436.7605,912.0
436.8221,854.0
436.8836,932.0
436.9452,816.0
437.0067,937.0
437.0684,838.0
437.1299,893.0
437.1914,824.0
437.253,918.0
437.3145,822.0
437.3761,919.0
437.4376,768.0
437.4992,878.0
437.5607,761.0
437.6222,845.0
437.6837,791.0
437.7452,874.0
437.8067,805.0
437.8683,898.0
437.9298,858.0
437.9913,887.0
438.0528,821.0
438.1143,890.0
438.1757,797.0
438.2372,833.0
438.2987,815.0
438.3602,876.0
438.4217,825.0
438.4831,882.0
438.5446,794.0
438.6061,903.0
438.6675,784.0
438.729,876.0
438.7904,789.0
438.8519,867.0
438.9133,797.0
438.9747,906.0
439.0362,782.0
439.0976,880.0
439.159,767.0
439.2204,854.0
439.2819,771.0
439.3433,929.0
439.4047,756.0
439.4661,851.0
439.5275,853.0
439.5889,859.0
439.6503,754.0
439.7116,862.0
439.7731,843.0
439.8345,906.0
439.8958,777.0
439.9572,845.0
440.0186,825.0
440.0799,901.0
440.1413,801.0
440.2027,868.0
440.264,782.0
440.3253,928.0
440.3867,834.0
440.448,914.0
440.5093,798.0
440.5707,895.0
440.632,764.0
440.6934,873.0
440.7546,825.0
440.816,855.0
440.8773,795.0
440.9386,892.0
440.9999,790.0
441.0612,872.0
441.1225,795.0
441.1838,891.0
441.2451,772.0
441.3063,889.0
441.3677,812.0
441.429,867.0
441.4902,807.0
441.5515,846.0
441.6127,812.0
441.674,846.0
441.7353,849.0
441.7965,883.0
441.8578,777.0
441.919,830.0
441.9802,797.0
442.0414,960.0
442.1027,809.0
442.164,892.0
442.2252,793.0
442.2864,890.0
442.3476,758.0
442.4088,892.0
442.47,820.0
442.5312,866.0
442.5924,823.0
442.6536,885.0
442.7148,780.0
442.776,876.0
442.8372,809.0
442.8984,845.0
442.9596,792.0
443.0207,874.0
443.0819,768.0
443.143,876.0
443.2042,788.0
443.2653,844.0
443.3265,769.0
443.3877,874.0
443.4488,800.0
443.5099,866.0
443.5711,794.0
443.6322,896.0
443.6934,801.0
443.7545,930.0
443.8156,817.0
443.8767,875.0
443.9378,828.0
443.9989,870.0
444.0601,793.0
444.1212,916.0
444.1822,851.0
444.2433,866.0
444.3044,807.0
444.3654,900.0
444.4265,790.0
444.4877,875.0
444.5487,813.0
444.6098,891.0
444.6708,802.0
444.7319,897.0
444.7929,795.0
444.854,856.0
444.915,863.0
444.9761,895.0
445.0371,776.0
445.0981,867.0
445.1592,794.0
445.2203,869.0
445.2812,801.0
445.3423,864.0
445.4033,793.0
445.4643,891.0
445.5253,802.0
445.5862,888.0
445.6473,776.0
445.7083,908.0
445.7693,843.0
445.8303,915.0
445.8912,814.0
445.9522,878.0
446.0132,862.0
446.0742,875.0
446.1352,791.0
446.1961,861.0
446.257,809.0
446.318,847.0
446.379,767.0
446.4399,827.0
446.5009,814.0
446.5618,862.0
446.6227,789.0
446.6836,845.0
446.7446,799.0
446.8055,849.0
446.8664,801.0
446.9273,882.0
446.9883,824.0
447.0491,869.0
447.11,776.0
447.171,868.0
447.2319,741.0
447.2927,890.0
447.3536,826.0
447.4145,866.0
447.4753,810.0
447.5363,832.0
447.5971,761.0
447.658,843.0
447.7188,761.0
447.7797,853.0
447.8405,742.0
447.9014,858.0
447.9623,725.0
448.0231,820.0
448.0839,722.0
448.1447,811.0
448.2056,735.0
448.2664,850.0
448.3272,786.0
448.3881,851.0
448.4489,769.0
448.5096,855.0
448.5705,751.0
448.6312,813.0
448.6921,773.0
448.7529,852.0
448.8137,743.0
448.8744,809.0
448.9352,736.0
448.9959,838.0
449.0567,754.0
449.1175,843.0
449.1783,730.0
449.239,824.0
449.2998,751.0
449.3605,845.0
449.4213,715.0
449.4821,825.0
449.5428,732.0
449.6035,791.0
449.6642,738.0
449.725,803.0
449.7857,752.0
449.8464,870.0
449.9071,735.0
449.9679,855.0
450.0285,765.0
450.0892,848.0
450.1499,769.0
450.2106,823.0
450.2714,715.0
450.332,834.0
450.3927,752.0
450.4534,828.0
450.514,767.0
450.5747,825.0
450.6354,767.0
450.696,804.0
450.7567,716.0
450.8174,809.0
450.878,750.0
450.9386,859.0
450.9993,764.0
451.0599,812.0
451.1206,740.0
451.1812,815.0
451.2418,735.0
451.3024,756.0
451.363,704.0
451.4236,816.0
451.4843,741.0
451.5449,829.0
451.6054,724.0
451.666,812.0
451.7267,728.0
451.7873,792.0
451.8478,746.0
451.9084,846.0
451.969,700.0
452.0295,812.0
452.0901,750.0
452.1507,793.0
452.2113,693.0
452.2718,784.0
452.3324,738.0
452.3929,801.0
452.4534,732.0
452.5139,820.0
452.5745,716.0
452.635,835.0
452.6956,728.0
452.7561,812.0
452.8166,750.0
452.8771,790.0
452.9377,715.0
452.9981,806.0
453.0586,754.0
453.1191,855.0
453.1796,733.0
453.2401,817.0
453.3006,763.0
453.3611,825.0
453.4216,719.0
453.4821,826.0
453.5425,738.0
453.6029,813.0
453.6634,740.0
453.7239,827.0
453.7844,771.0
453.8448,845.0
453.9052,742.0
453.9656,832.0
454.0261,723.0
454.0866,831.0
454.147,702.0
454.2074,837.0
454.2678,780.0
454.3282,839.0
454.3886,783.0
454.449,875.0
454.5095,780.0
454.5699,808.0
454.6302,751.0
454.6906,827.0
454.751,741.0
454.8114,862.0
454.8718,772.0
454.9322,861.0
454.9925,757.0
455.0529,802.0
455.1133,789.0
455.1736,846.0
455.234,786.0
455.2943,848.0
455.3547,769.0
455.415,886.0
455.4753,769.0
455.5357,845.0
455.5959,764.0
455.6563,870.0
455.7167,769.0
455.777,864.0
455.8373,792.0
455.8976,836.0
455.9579,795.0
456.0182,860.0
456.0785,730.0
456.1388,842.0
456.1991,764.0
456.2593,843.0
456.3196,776.0
456.3799,865.0
456.4402,795.0
456.5005,836.0
456.5607,771.0
456.621,818.0
456.6812,784.0
456.7414,835.0
456.8018,794.0
456.862,835.0
456.9222,805.0
456.9825,796.0
457.0426,779.0
457.1028,795.0
457.1631,761.0
457.2234,862.0
457.2835,728.0
457.3438,871.0
457.404,745.0
457.4641,850.0
457.5244,779.0
457.5846,834.0
457.6447,757.0
457.7049,846.0
457.7651,807.0
457.8253,883.0
457.8854,749.0
457.9456,830.0
458.0058,731.0
458.0659,787.0
458.1261,731.0
458.1862,860.0
458.2464,729.0
458.3066,881.0
458.3667,783.0
458.4268,809.0
458.4869,806.0
458.5471,718.0
458.6072,584.0
458.6674,721.0
458.7274,596.0
458.7876,725.0
458.8477,651.0
458.9077,696.0
458.9679,600.0
459.0279,690.0
459.0881,594.0
459.1481,701.0
459.2082,592.0
459.2683,714.0
459.3283,607.0
459.3884,713.0
459.4485,606.0
459.5086,668.0
459.5686,621.0
459.6287,677.0
459.6887,644.0
459.7487,739.0
459.8088,692.0
459.8688,658.0
459.9289,646.0
459.9889,712.0
460.0489,621.0
460.1089,694.0
460.1689,637.0
460.229,687.0
460.289,594.0
