Laser settings:
	Diode frequency:	5 Hz
	Pulses fired:		105
	Q-Switch blanking:	5
	Q-Switch delay:		201 μs
	Q-Switch presync:	1 μs
Spectrometer settings:
	Integration time:	0.0090 ms
	Integration delay:	0.000 ns
	Averaging:		1
	Trigger mode:		External
	Dynamic Dark Correction:		Disabled


wavelength,intensity
184.9409,659.0
185.0142,613.0
185.0875,664.0
185.1608,673.0
185.2341,701.0
185.3074,615.0
185.3807,722.0
185.454,660.0
185.5273,690.0
185.6006,624.0
185.6739,657.0
185.7472,649.0
185.8205,672.0
185.8938,645.0
185.9671,682.0
186.0403,598.0
186.1136,680.0
186.1869,616.0
186.2601,688.0
186.3334,611.0
186.4067,675.0
186.4799,618.0
186.5532,680.0
186.6265,656.0
186.6997,697.0
186.773,645.0
186.8462,691.0
186.9195,636.0
186.9928,688.0
187.066,662.0
187.1392,698.0
187.2125,645.0
187.2857,666.0
187.3589,640.0
187.4322,699.0
187.5054,607.0
187.5786,676.0
187.6519,657.0
187.7251,714.0
187.7983,637.0
187.8715,717.0
187.9447,592.0
188.018,732.0
188.0912,609.0
188.1644,704.0
188.2376,628.0
188.3108,676.0
188.384,622.0
188.4572,680.0
188.5304,682.0
188.6036,722.0
188.6768,646.0
188.75,729.0
188.8232,626.0
188.8963,707.0
188.9695,649.0
189.0427,725.0
189.1159,662.0
189.1891,727.0
189.2623,681.0
189.3354,742.0
189.4086,698.0
189.4818,739.0
189.5549,693.0
189.6281,722.0
189.7012,667.0
189.7744,771.0
189.8476,651.0
189.9207,766.0
189.9939,693.0
190.067,715.0
190.1402,685.0
190.2133,751.0
190.2864,689.0
190.3596,776.0
190.4327,687.0
190.5059,698.0
190.579,691.0
190.6521,716.0
190.7253,670.0
190.7984,745.0
190.8715,695.0
190.9446,723.0
191.0177,630.0
191.0908,729.0
191.164,676.0
191.2371,755.0
191.3102,699.0
191.3833,717.0
191.4564,662.0
191.5295,790.0
191.6026,653.0
191.6757,759.0
191.7488,676.0
191.8219,757.0
191.895,709.0
191.968,742.0
192.0411,715.0
192.1142,764.0
192.1873,660.0
192.2604,788.0
192.3334,647.0
192.4065,773.0
192.4796,704.0
192.5527,758.0
192.6257,700.0
192.6988,761.0
192.7718,728.0
192.8449,806.0
192.918,769.0
192.991,958.0
193.064,966.0
193.1371,1086.0
193.2101,907.0
193.2832,942.0
193.3562,849.0
193.4292,847.0
193.5023,761.0
193.5753,817.0
193.6484,721.0
193.7214,786.0
193.7944,749.0
193.8674,760.0
193.9405,684.0
194.0135,774.0
194.0865,675.0
194.1595,834.0
194.2325,726.0
194.3055,782.0
194.3785,693.0
194.4515,769.0
194.5246,751.0
194.5975,789.0
194.6705,715.0
194.7435,756.0
194.8165,682.0
194.8895,799.0
194.9625,684.0
195.0355,743.0
195.1085,708.0
195.1815,755.0
195.2544,713.0
195.3274,760.0
195.4004,691.0
195.4734,810.0
195.5463,657.0
195.6193,744.0
195.6923,708.0
195.7652,753.0
195.8382,715.0
195.9111,750.0
195.9841,684.0
196.057,776.0
196.13,734.0
196.2029,799.0
196.2759,713.0
196.3488,744.0
196.4218,756.0
196.4947,755.0
196.5676,743.0
196.6406,810.0
196.7135,700.0
196.7864,832.0
196.8593,729.0
196.9323,767.0
197.0052,743.0
197.0781,800.0
197.151,666.0
197.2239,768.0
197.2969,697.0
197.3697,791.0
197.4427,700.0
197.5156,777.0
197.5885,726.0
197.6614,788.0
197.7343,683.0
197.8072,812.0
197.88,674.0
197.9529,701.0
198.0258,708.0
198.0987,829.0
198.1716,752.0
198.2445,749.0
198.3173,724.0
198.3902,728.0
198.4631,688.0
198.5359,812.0
198.6088,656.0
198.6817,810.0
198.7545,714.0
198.8274,736.0
198.9003,726.0
198.9731,754.0
199.046,719.0
199.1188,775.0
199.1917,710.0
199.2645,787.0
199.3373,697.0
199.4102,745.0
199.483,721.0
199.5559,709.0
199.6287,719.0
199.7015,796.0
199.7744,742.0
199.8472,762.0
199.92,694.0
199.9928,779.0
200.0656,714.0
200.1385,767.0
200.2113,699.0
200.2841,757.0
200.3569,657.0
200.4297,759.0
200.5025,675.0
200.5753,771.0
200.6481,724.0
200.7209,750.0
200.7937,699.0
200.8665,743.0
200.9393,685.0
201.0121,776.0
201.0848,701.0
201.1576,791.0
201.2304,701.0
201.3032,754.0
201.3759,740.0
201.4487,786.0
201.5215,721.0
201.5943,786.0
201.667,699.0
201.7398,738.0
201.8125,683.0
201.8853,752.0
201.958,665.0
202.0308,807.0
202.1035,677.0
202.1763,769.0
202.249,724.0
202.3218,758.0
202.3945,687.0
202.4673,760.0
202.54,724.0
202.6127,760.0
202.6855,665.0
202.7582,781.0
202.8309,682.0
202.9036,764.0
202.9764,632.0
203.0491,784.0
203.1218,716.0
203.1945,793.0
203.2672,710.0
203.3399,788.0
203.4126,702.0
203.4853,764.0
203.558,672.0
203.6307,759.0
203.7034,690.0
203.7761,787.0
203.8488,708.0
203.9215,776.0
203.9942,705.0
204.0669,779.0
204.1395,705.0
204.2122,792.0
204.2849,706.0
204.3576,770.0
204.4302,721.0
204.5029,766.0
204.5756,706.0
204.6482,781.0
204.7209,707.0
204.7935,794.0
204.8662,661.0
204.9389,767.0
205.0115,712.0
205.0842,765.0
205.1568,695.0
205.2294,734.0
205.3021,721.0
205.3747,740.0
205.4474,688.0
205.52,785.0
205.5926,685.0
205.6653,800.0
205.7379,674.0
205.8105,782.0
205.8831,726.0
205.9557,764.0
206.0284,694.0
206.101,771.0
206.1736,703.0
206.2462,791.0
206.3188,722.0
206.3914,751.0
206.464,711.0
206.5366,779.0
206.6092,645.0
206.6818,747.0
206.7544,735.0
206.827,785.0
206.8996,663.0
206.9721,736.0
207.0447,725.0
207.1173,775.0
207.1899,702.0
207.2625,787.0
207.335,724.0
207.4076,776.0
207.4802,689.0
207.5527,793.0
207.6253,679.0
207.6978,774.0
207.7704,712.0
207.843,754.0
207.9155,686.0
207.9881,787.0
208.0606,679.0
208.1331,786.0
208.2057,721.0
208.2782,755.0
208.3508,739.0
208.4233,803.0
208.4958,723.0
208.5684,792.0
208.6409,683.0
208.7134,775.0
208.7859,713.0
208.8584,773.0
208.931,688.0
209.0035,753.0
209.076,697.0
209.1485,806.0
209.221,668.0
209.2935,784.0
209.366,710.0
209.4385,794.0
209.511,695.0
209.5835,800.0
209.656,706.0
209.7285,759.0
209.801,681.0
209.8735,795.0
209.9459,766.0
210.0184,789.0
210.0909,683.0
210.1634,772.0
210.2358,735.0
210.3083,767.0
210.3808,690.0
210.4532,757.0
210.5257,696.0
210.5982,783.0
210.6706,691.0
210.7431,753.0
210.8155,698.0
210.888,738.0
210.9604,651.0
211.0329,749.0
211.1053,644.0
211.1777,741.0
211.2502,683.0
211.3226,743.0
211.3951,678.0
211.4675,786.0
211.5399,694.0
211.6123,767.0
211.6847,691.0
211.7572,753.0
211.8296,717.0
211.902,819.0
211.9744,741.0
212.0468,749.0
212.1192,688.0
212.1917,758.0
212.264,725.0
212.3364,762.0
212.4088,698.0
212.4812,782.0
212.5536,737.0
212.626,760.0
212.6984,741.0
212.7708,789.0
212.8432,705.0
212.9155,792.0
212.9879,740.0
213.0603,782.0
213.1326,722.0
213.205,766.0
213.2774,706.0
213.3498,764.0
213.4221,677.0
213.4945,803.0
213.5668,723.0
213.6392,779.0
213.7115,708.0
213.7839,792.0
213.8562,691.0
213.9286,733.0
214.0009,739.0
214.0732,768.0
214.1456,716.0
214.2179,757.0
214.2903,712.0
214.3626,763.0
214.4349,706.0
214.5072,794.0
214.5796,678.0
214.6519,776.0
214.7242,713.0
214.7965,769.0
214.8688,711.0
214.9411,741.0
215.0134,668.0
215.0857,850.0
215.158,712.0
215.2303,789.0
215.3026,732.0
215.3749,760.0
215.4472,763.0
215.5195,794.0
215.5918,692.0
215.6641,760.0
215.7363,698.0
215.8086,797.0
215.8809,719.0
215.9532,792.0
216.0254,716.0
216.0977,753.0
216.17,730.0
216.2422,781.0
216.3145,712.0
216.3867,828.0
216.459,696.0
216.5313,811.0
216.6035,714.0
216.6758,774.0
216.748,666.0
216.8202,778.0
216.8925,729.0
216.9647,827.0
217.037,721.0
217.1092,797.0
217.1814,667.0
217.2536,768.0
217.3259,715.0
217.3981,794.0
217.4703,700.0
217.5425,781.0
217.6147,718.0
217.687,805.0
217.7592,753.0
217.8314,806.0
217.9035,726.0
217.9758,773.0
218.048,742.0
218.1201,784.0
218.1924,733.0
218.2645,813.0
218.3367,722.0
218.4089,767.0
218.4811,728.0
218.5533,818.0
218.6255,692.0
218.6976,779.0
218.7698,775.0
218.842,818.0
218.9142,737.0
218.9863,758.0
219.0585,771.0
219.1306,781.0
219.2028,743.0
219.2749,818.0
219.3471,727.0
219.4193,811.0
219.4914,732.0
219.5636,827.0
219.6357,751.0
219.7078,833.0
219.78,771.0
219.8521,828.0
219.9242,741.0
219.9964,817.0
220.0685,770.0
220.1406,799.0
220.2128,772.0
220.2849,780.0
220.357,762.0
220.4291,853.0
220.5012,729.0
220.5733,846.0
220.6454,746.0
220.7175,827.0
220.7896,746.0
220.8617,846.0
220.9338,769.0
221.0059,863.0
221.078,797.0
221.1501,859.0
221.2222,763.0
221.2943,830.0
221.3663,739.0
221.4384,836.0
221.5105,771.0
221.5826,821.0
221.6546,745.0
221.7267,829.0
221.7988,770.0
221.8708,813.0
221.9429,730.0
222.015,830.0
222.087,786.0
222.1591,807.0
222.2311,764.0
222.3032,889.0
222.3752,783.0
222.4473,839.0
222.5193,733.0
222.5913,818.0
222.6634,744.0
222.7354,837.0
222.8074,755.0
222.8795,832.0
222.9515,731.0
223.0235,768.0
223.0955,746.0
223.1675,797.0
223.2395,766.0
223.3116,825.0
223.3836,760.0
223.4556,839.0
223.5276,756.0
223.5996,839.0
223.6716,752.0
223.7436,842.0
223.8156,777.0
223.8876,832.0
223.9595,743.0
224.0315,800.0
224.1035,767.0
224.1755,822.0
224.2475,796.0
224.3195,851.0
224.3914,786.0
224.4634,855.0
224.5354,749.0
224.6073,840.0
224.6793,741.0
224.7512,841.0
224.8232,749.0
224.8952,824.0
224.9671,766.0
225.0391,818.0
225.111,806.0
225.1829,844.0
225.2549,796.0
225.3268,813.0
225.3988,757.0
225.4707,867.0
225.5426,790.0
225.6146,826.0
225.6865,776.0
225.7584,870.0
225.8303,811.0
225.9022,827.0
225.9742,791.0
226.0461,832.0
226.118,769.0
226.1899,865.0
226.2618,805.0
226.3337,855.0
226.4056,798.0
226.4775,894.0
226.5494,812.0
226.6213,824.0
226.6932,737.0
226.7651,825.0
226.8369,789.0
226.9088,868.0
226.9807,766.0
227.0526,880.0
227.1245,780.0
227.1963,872.0
227.2682,780.0
227.3401,891.0
227.4119,754.0
227.4838,868.0
227.5556,842.0
227.6275,836.0
227.6993,781.0
227.7712,845.0
227.8431,782.0
227.9149,861.0
227.9867,784.0
228.0586,808.0
228.1304,796.0
228.2023,865.0
228.2741,768.0
228.3459,838.0
228.4177,794.0
228.4896,850.0
228.5614,784.0
228.6332,818.0
228.705,791.0
228.7768,877.0
228.8486,811.0
228.9205,876.0
228.9923,789.0
229.0641,879.0
229.1359,826.0
229.2077,917.0
229.2794,854.0
229.3513,960.0
229.423,965.0
229.4948,1143.0
229.5666,1162.0
229.6384,1269.0
229.7102,1226.0
229.782,1138.0
229.8537,915.0
229.9255,909.0
229.9973,820.0
230.069,861.0
230.1408,753.0
230.2126,831.0
230.2843,746.0
230.3561,830.0
230.4278,730.0
230.4996,824.0
230.5713,751.0
230.6431,867.0
230.7148,761.0
230.7866,787.0
230.8583,742.0
230.93,773.0
231.0018,759.0
231.0735,834.0
231.1452,701.0
231.2169,815.0
231.2887,710.0
231.3604,835.0
231.4321,721.0
231.5038,780.0
231.5755,777.0
231.6472,829.0
231.7189,759.0
231.7906,820.0
231.8624,740.0
231.9341,836.0
232.0057,762.0
232.0774,813.0
232.1491,786.0
232.2208,798.0
232.2925,754.0
232.3642,847.0
232.4359,778.0
232.5075,835.0
232.5792,759.0
232.6509,859.0
232.7225,743.0
232.7942,859.0
232.8659,747.0
232.9375,805.0
233.0092,753.0
233.0809,829.0
233.1525,769.0
233.2242,847.0
233.2958,772.0
233.3675,802.0
233.4391,814.0
233.5107,820.0
233.5824,733.0
233.654,802.0
233.7256,765.0
233.7973,831.0
233.8689,724.0
233.9405,850.0
234.0121,783.0
234.0838,802.0
234.1554,755.0
234.227,842.0
234.2986,751.0
234.3702,811.0
234.4418,695.0
234.5134,853.0
234.585,749.0
234.6566,817.0
234.7282,755.0
234.7998,817.0
234.8714,754.0
234.943,844.0
235.0146,754.0
235.0862,795.0
235.1577,744.0
235.2293,763.0
235.3009,730.0
235.3725,845.0
235.444,785.0
235.5156,852.0
235.5872,751.0
235.6587,825.0
235.7303,774.0
235.8018,814.0
235.8734,738.0
235.9449,827.0
236.0165,766.0
236.088,849.0
236.1596,797.0
236.2311,845.0
236.3026,789.0
236.3742,851.0
236.4457,744.0
236.5172,824.0
236.5887,780.0
236.6603,846.0
236.7318,751.0
236.8033,854.0
236.8748,778.0
236.9464,854.0
237.0179,773.0
237.0894,825.0
237.1609,781.0
237.2324,863.0
237.3039,769.0
237.3754,834.0
237.4469,772.0
237.5184,882.0
237.5898,787.0
237.6613,828.0
237.7328,801.0
237.8043,840.0
237.8758,759.0
237.9472,837.0
238.0187,762.0
238.0902,862.0
238.1617,792.0
238.2331,901.0
238.3046,772.0
238.376,841.0
238.4475,779.0
238.519,854.0
238.5904,808.0
238.6618,848.0
238.7333,816.0
238.8047,861.0
238.8762,795.0
238.9476,872.0
239.0191,768.0
239.0905,876.0
239.1619,798.0
239.2334,859.0
239.3048,784.0
239.3762,904.0
239.4476,788.0
239.519,831.0
239.5904,833.0
239.6619,882.0
239.7333,802.0
239.8047,840.0
239.8761,785.0
239.9475,850.0
240.0189,773.0
240.0903,905.0
240.1617,818.0
240.233,872.0
240.3044,789.0
240.3758,870.0
240.4472,784.0
240.5186,899.0
240.59,750.0
240.6613,852.0
240.7327,805.0
240.8041,844.0
240.8754,787.0
240.9468,877.0
241.0181,776.0
241.0895,832.0
241.1609,802.0
241.2322,849.0
241.3036,778.0
241.3749,898.0
241.4462,796.0
241.5176,875.0
241.5889,774.0
241.6602,879.0
241.7316,815.0
241.8029,862.0
241.8743,775.0
241.9456,823.0
242.0169,759.0
242.0882,885.0
242.1595,795.0
242.2309,867.0
242.3022,757.0
242.3735,853.0
242.4448,756.0
242.5161,847.0
242.5874,795.0
242.6587,864.0
242.73,796.0
242.8013,878.0
242.8726,793.0
242.9438,863.0
243.0151,814.0
243.0864,830.0
243.1577,787.0
243.229,872.0
243.3002,807.0
243.3715,859.0
243.4428,815.0
243.5141,831.0
243.5853,802.0
243.6566,845.0
243.7278,767.0
243.7991,871.0
243.8703,811.0
243.9416,877.0
244.0128,776.0
244.0841,845.0
244.1553,801.0
244.2266,911.0
244.2978,768.0
244.369,854.0
244.4402,778.0
244.5115,820.0
244.5827,783.0
244.6539,860.0
244.7251,763.0
244.7964,817.0
244.8676,790.0
244.9388,891.0
245.01,792.0
245.0812,851.0
245.1524,798.0
245.2236,869.0
245.2948,815.0
245.366,866.0
245.4372,749.0
245.5084,849.0
245.5796,752.0
245.6507,805.0
245.7219,827.0
245.7931,860.0
245.8643,826.0
245.9355,872.0
246.0066,794.0
246.0778,815.0
246.149,774.0
246.2201,825.0
246.2913,792.0
246.3624,841.0
246.4336,789.0
246.5047,831.0
246.5759,734.0
246.647,798.0
246.7182,742.0
246.7893,878.0
246.8605,747.0
246.9316,883.0
247.0027,747.0
247.0739,837.0
247.145,733.0
247.2161,851.0
247.2872,733.0
247.3584,883.0
247.4295,768.0
247.5006,844.0
247.5717,797.0
247.6428,930.0
247.7139,905.0
247.785,1064.0
247.8561,1112.0
247.9272,1256.0
247.9983,1131.0
248.0694,1092.0
248.1405,904.0
248.2116,944.0
248.2827,814.0
248.3537,883.0
248.4248,774.0
248.4959,854.0
248.5669,770.0
248.638,853.0
248.7091,749.0
248.7802,875.0
248.8512,767.0
248.9223,881.0
248.9933,772.0
249.0644,810.0
249.1354,757.0
249.2065,849.0
249.2775,782.0
249.3486,826.0
249.4196,701.0
249.4906,862.0
249.5617,788.0
249.6327,815.0
249.7037,771.0
249.7747,868.0
249.8458,757.0
249.9168,868.0
249.9878,797.0
250.0588,839.0
250.1298,774.0
250.2009,864.0
250.2719,804.0
250.3429,818.0
250.4138,757.0
250.4849,887.0
250.5558,776.0
250.6268,878.0
250.6978,815.0
250.7688,942.0
250.8398,847.0
250.9108,992.0
250.9818,899.0
251.0527,971.0
251.1237,913.0
251.1947,1045.0
251.2657,926.0
251.3366,903.0
251.4076,817.0
251.4785,840.0
251.5495,782.0
251.6205,857.0
251.6914,805.0
251.7623,874.0
251.8333,780.0
251.9042,843.0
251.9752,810.0
252.0461,864.0
252.1171,757.0
252.188,804.0
252.2589,775.0
252.3298,833.0
252.4008,774.0
252.4717,848.0
252.5426,750.0
252.6135,835.0
252.6844,766.0
252.7553,837.0
252.8262,778.0
252.8971,861.0
252.9681,811.0
253.039,861.0
253.1098,766.0
253.1808,835.0
253.2516,750.0
253.3225,839.0
253.3934,746.0
253.4643,821.0
253.5352,767.0
253.606,823.0
253.6769,777.0
253.7478,813.0
253.8187,824.0
253.8895,843.0
253.9604,741.0
254.0312,832.0
254.1021,752.0
254.173,838.0
254.2438,757.0
254.3147,852.0
254.3855,750.0
254.4563,796.0
254.5272,753.0
254.598,880.0
254.6689,800.0
254.7397,807.0
254.8105,784.0
254.8813,846.0
254.9522,806.0
255.023,828.0
255.0938,787.0
255.1646,842.0
255.2354,743.0
255.3062,841.0
255.3771,724.0
255.4479,853.0
255.5187,723.0
255.5894,803.0
255.6603,804.0
255.731,844.0
255.8018,762.0
255.8726,871.0
255.9434,783.0
256.0142,842.0
256.085,722.0
256.1558,841.0
256.2265,775.0
256.2973,885.0
256.3681,779.0
256.4388,849.0
256.5096,746.0
256.5804,819.0
256.6511,778.0
256.7219,835.0
256.7926,784.0
256.8634,861.0
256.9341,813.0
257.0049,873.0
257.0756,737.0
257.1463,852.0
257.2171,774.0
257.2878,860.0
257.3585,794.0
257.4292,828.0
257.5,764.0
257.5707,855.0
257.6414,746.0
257.7122,797.0
257.7828,754.0
257.8535,828.0
257.9243,745.0
257.995,893.0
258.0657,756.0
258.1364,831.0
258.2071,744.0
258.2777,826.0
258.3484,760.0
258.4191,836.0
258.4898,725.0
258.5605,854.0
258.6312,755.0
258.7018,890.0
258.7725,784.0
258.8432,802.0
258.9139,717.0
258.9845,805.0
259.0552,707.0
259.1259,850.0
259.1965,789.0
259.2672,798.0
259.3378,798.0
259.4085,841.0
259.4791,759.0
259.5497,784.0
259.6204,699.0
259.691,813.0
259.7617,734.0
259.8323,829.0
259.9029,712.0
259.9735,839.0
260.0442,780.0
260.1147,797.0
260.1854,788.0
260.256,832.0
260.3267,725.0
260.3972,862.0
260.4678,756.0
260.5384,846.0
260.6091,754.0
260.6796,844.0
260.7502,767.0
260.8208,786.0
260.8914,767.0
260.962,867.0
261.0326,774.0
261.1032,769.0
261.1737,757.0
261.2444,857.0
261.3149,813.0
261.3854,861.0
261.456,702.0
261.5266,846.0
261.5971,766.0
261.6677,866.0
261.7383,804.0
261.8088,847.0
261.8794,759.0
261.9499,825.0
262.0205,767.0
262.091,836.0
262.1615,779.0
262.2321,875.0
262.3026,798.0
262.3731,863.0
262.4437,764.0
262.5142,891.0
262.5847,795.0
262.6552,833.0
262.7257,789.0
262.7962,872.0
262.8668,783.0
262.9373,875.0
263.0078,828.0
263.0783,804.0
263.1488,768.0
263.2193,795.0
263.2898,757.0
263.3603,866.0
263.4307,754.0
263.5012,866.0
263.5717,751.0
263.6422,844.0
263.7127,769.0
263.7831,847.0
263.8536,777.0
263.9241,859.0
263.9945,748.0
264.065,906.0
264.1354,755.0
264.2059,826.0
264.2764,749.0
264.3468,856.0
264.4173,777.0
264.4877,865.0
264.5581,751.0
264.6286,856.0
264.699,792.0
264.7694,844.0
264.8399,790.0
264.9103,849.0
264.9807,750.0
265.0511,880.0
265.1216,718.0
265.192,841.0
265.2625,756.0
265.3328,811.0
265.4032,774.0
265.4736,845.0
265.5441,792.0
265.6144,816.0
265.6848,763.0
265.7552,841.0
265.8256,756.0
265.896,820.0
265.9664,744.0
266.0368,819.0
266.1071,776.0
266.1775,814.0
266.2479,762.0
266.3183,788.0
266.3886,741.0
266.459,810.0
266.5294,753.0
266.5998,845.0
266.6701,776.0
266.7404,836.0
266.8108,783.0
266.8812,818.0
266.9515,748.0
267.0219,858.0
267.0922,724.0
267.1625,833.0
267.2328,793.0
267.3032,842.0
267.3735,747.0
267.4438,804.0
267.5142,726.0
267.5845,852.0
267.6548,795.0
267.7251,829.0
267.7954,710.0
267.8657,803.0
267.936,772.0
268.0063,819.0
268.0766,758.0
268.1469,803.0
268.2172,745.0
268.2875,782.0
268.3578,725.0
268.4281,837.0
268.4984,719.0
268.5686,782.0
268.6389,721.0
268.7092,790.0
268.7794,728.0
268.8498,785.0
268.92,737.0
268.9902,826.0
269.0605,731.0
269.1308,768.0
269.201,764.0
269.2713,800.0
269.3415,721.0
269.4118,843.0
269.482,778.0
269.5523,822.0
269.6225,690.0
269.6927,808.0
269.7629,753.0
269.8332,811.0
269.9034,717.0
269.9736,819.0
270.0439,710.0
270.114,816.0
270.1843,779.0
270.2545,798.0
270.3247,741.0
270.3949,803.0
270.4651,780.0
270.5353,797.0
270.6055,745.0
270.6757,766.0
270.7459,765.0
270.8161,828.0
270.8863,754.0
270.9564,820.0
271.0266,789.0
271.0968,816.0
271.167,778.0
271.2371,845.0
271.3073,744.0
271.3775,822.0
271.4476,726.0
271.5178,845.0
271.588,798.0
271.6581,858.0
271.7282,771.0
271.7984,851.0
271.8685,730.0
271.9387,823.0
272.0088,817.0
272.0789,875.0
272.1491,797.0
272.2192,817.0
272.2893,807.0
272.3595,854.0
272.4296,755.0
272.4997,894.0
272.5698,738.0
272.64,869.0
272.7101,789.0
272.7802,827.0
272.8503,775.0
272.9204,831.0
272.9904,804.0
273.0605,858.0
273.1306,775.0
273.2007,871.0
273.2708,765.0
273.3409,846.0
273.411,783.0
273.481,831.0
273.5511,761.0
273.6212,870.0
273.6913,809.0
273.7614,879.0
273.8314,811.0
273.9015,892.0
273.9715,793.0
274.0416,862.0
274.1116,787.0
274.1817,873.0
274.2517,784.0
274.3217,890.0
274.3918,789.0
274.4619,865.0
274.5319,764.0
274.602,898.0
274.6719,887.0
274.742,896.0
274.812,856.0
274.882,862.0
274.952,763.0
275.0221,941.0
275.0921,796.0
275.1621,870.0
275.2321,817.0
275.3021,853.0
275.3721,778.0
275.4421,846.0
275.5121,757.0
275.5821,874.0
275.6521,792.0
275.722,887.0
275.792,805.0
275.862,818.0
275.932,775.0
276.002,894.0
276.0719,789.0
276.1418,852.0
276.2119,813.0
276.2818,859.0
276.3517,765.0
276.4218,862.0
276.4917,808.0
276.5616,846.0
276.6316,793.0
276.7015,866.0
276.7715,767.0
276.8414,818.0
276.9113,715.0
276.9813,828.0
277.0512,755.0
277.1211,835.0
277.191,801.0
277.261,841.0
277.3309,752.0
277.4008,869.0
277.4707,783.0
277.5406,812.0
277.6105,772.0
277.6804,832.0
277.7503,748.0
277.8202,821.0
277.8901,782.0
277.96,860.0
278.0299,760.0
278.0998,836.0
278.1697,788.0
278.2396,805.0
278.3094,826.0
278.3793,884.0
278.4492,762.0
278.519,824.0
278.5889,802.0
278.6588,895.0
278.7286,766.0
278.7985,857.0
278.8683,780.0
278.9382,883.0
279.0081,813.0
279.0779,819.0
279.1477,758.0
279.2176,836.0
279.2874,771.0
279.3572,890.0
279.4271,813.0
279.4969,887.0
279.5667,802.0
279.6365,889.0
279.7063,775.0
279.7762,854.0
279.846,833.0
279.9158,875.0
279.9856,784.0
280.0554,861.0
280.1252,817.0
280.195,854.0
280.2648,789.0
280.3346,880.0
280.4044,812.0
280.4742,878.0
280.544,823.0
280.6137,908.0
280.6835,830.0
280.7533,846.0
280.8231,799.0
280.8928,907.0
280.9626,802.0
281.0323,899.0
281.1021,819.0
281.1719,927.0
281.2416,799.0
281.3114,863.0
281.3811,807.0
281.4509,871.0
281.5206,797.0
281.5904,887.0
281.6601,765.0
281.7299,901.0
281.7996,771.0
281.8693,846.0
281.939,793.0
282.0088,872.0
282.0784,796.0
282.1482,891.0
282.2179,811.0
282.2876,894.0
282.3573,808.0
282.427,850.0
282.4967,823.0
282.5664,863.0
282.6361,823.0
282.7058,890.0
282.7755,815.0
282.8452,887.0
282.9149,847.0
282.9845,871.0
283.0542,793.0
283.1239,867.0
283.1936,825.0
283.2632,903.0
283.3329,819.0
283.4026,908.0
283.4722,871.0
283.5419,932.0
283.6115,849.0
283.6812,977.0
283.7508,852.0
283.8205,945.0
283.8901,824.0
283.9597,886.0
284.0294,842.0
284.099,916.0
284.1686,814.0
284.2383,954.0
284.3079,803.0
284.3775,875.0
284.4471,834.0
284.5168,827.0
284.5864,781.0
284.656,887.0
284.7256,785.0
284.7952,909.0
284.8648,791.0
284.9344,922.0
285.004,835.0
285.0736,876.0
285.1432,790.0
285.2128,889.0
285.2823,783.0
285.3519,935.0
285.4215,818.0
285.4911,869.0
285.5606,816.0
285.6302,855.0
285.6998,783.0
285.7693,843.0
285.8389,804.0
285.9084,850.0
285.978,767.0
286.0475,851.0
286.1171,781.0
286.1866,862.0
286.2562,801.0
286.3257,855.0
286.3952,839.0
286.4648,864.0
286.5343,789.0
286.6039,860.0
286.6733,767.0
286.7429,837.0
286.8124,760.0
286.8819,886.0
286.9514,804.0
287.0209,881.0
287.0904,756.0
287.1599,886.0
287.2294,805.0
287.299,876.0
287.3684,800.0
287.4379,842.0
287.5074,771.0
287.5769,872.0
287.6464,788.0
287.7159,842.0
287.7853,745.0
287.8548,845.0
287.9243,774.0
287.9937,870.0
288.0632,825.0
288.1327,856.0
288.2021,736.0
288.2716,823.0
288.341,795.0
288.4105,830.0
288.4799,762.0
288.5493,882.0
288.6188,761.0
288.6882,849.0
288.7577,783.0
288.8271,839.0
288.8965,765.0
288.9659,892.0
289.0354,768.0
289.1048,843.0
289.1742,773.0
289.2436,882.0
289.313,758.0
289.3824,842.0
289.4518,867.0
289.5212,872.0
289.5906,779.0
289.66,873.0
289.7294,801.0
289.7988,857.0
289.8682,832.0
289.9376,829.0
290.007,782.0
290.0764,902.0
290.1457,820.0
290.2151,892.0
290.2844,782.0
290.3538,913.0
290.4232,795.0
290.4925,848.0
290.5619,748.0
290.6312,861.0
290.7006,786.0
290.7699,897.0
290.8393,798.0
290.9086,888.0
290.978,874.0
291.0473,857.0
291.1166,798.0
291.1859,905.0
291.2553,762.0
291.3246,913.0
291.3939,842.0
291.4632,879.0
291.5325,812.0
291.6018,881.0
291.6712,802.0
291.7405,905.0
291.8098,835.0
291.8791,886.0
291.9484,804.0
292.0176,893.0
292.0869,850.0
292.1562,889.0
292.2255,825.0
292.2948,878.0
292.3641,844.0
292.4334,897.0
292.5026,812.0
292.5719,952.0
292.6412,785.0
292.7104,896.0
292.7797,872.0
292.8489,948.0
292.9182,820.0
292.9875,890.0
293.0567,770.0
293.1259,928.0
293.1952,846.0
293.2644,942.0
293.3336,801.0
293.4029,883.0
293.4721,830.0
293.5413,873.0
293.6106,835.0
293.6798,894.0
293.749,787.0
293.8182,899.0
293.8875,794.0
293.9566,903.0
294.0259,825.0
294.0951,907.0
294.1642,787.0
294.2334,899.0
294.3026,839.0
294.3718,898.0
294.441,839.0
294.5102,937.0
294.5794,833.0
294.6485,903.0
294.7177,783.0
294.7869,883.0
294.8561,814.0
294.9253,946.0
294.9944,779.0
295.0636,891.0
295.1327,819.0
295.2019,879.0
295.271,809.0
295.3402,843.0
295.4093,815.0
295.4785,883.0
295.5476,829.0
295.6168,926.0
295.6859,815.0
295.755,909.0
295.8241,787.0
295.8932,918.0
295.9623,807.0
296.0315,833.0
296.1006,816.0
296.1697,871.0
296.2388,833.0
296.3079,853.0
296.377,850.0
296.4461,906.0
296.5152,803.0
296.5843,890.0
296.6534,810.0
296.7225,887.0
296.7916,805.0
296.8606,915.0
296.9297,859.0
296.9988,873.0
297.0679,777.0
297.137,886.0
297.206,807.0
297.2751,927.0
297.3441,794.0
297.4132,886.0
297.4823,837.0
297.5513,865.0
297.6204,805.0
297.6894,903.0
297.7584,827.0
297.8275,946.0
297.8965,822.0
297.9655,876.0
298.0346,845.0
298.1036,907.0
298.1726,851.0
298.2417,887.0
298.3106,836.0
298.3797,866.0
298.4487,843.0
298.5177,923.0
298.5867,825.0
298.6557,906.0
298.7247,849.0
298.7937,889.0
298.8627,871.0
298.9317,902.0
299.0007,833.0
299.0696,900.0
299.1386,792.0
299.2076,945.0
299.2766,861.0
299.3456,900.0
299.4145,826.0
299.4835,896.0
299.5524,812.0
299.6214,942.0
299.6903,836.0
299.7593,917.0
299.8282,864.0
299.8972,902.0
299.9661,855.0
300.0351,932.0
300.104,836.0
300.173,918.0
300.2419,841.0
300.3108,947.0
300.3797,798.0
300.4487,944.0
300.5176,811.0
300.5865,888.0
300.6554,837.0
300.7243,935.0
300.7932,850.0
300.8621,915.0
300.931,836.0
300.9999,934.0
301.0688,827.0
301.1377,919.0
301.2066,859.0
301.2755,946.0
301.3444,825.0
301.4132,913.0
301.4821,801.0
301.551,931.0
301.6199,905.0
301.6887,946.0
301.7576,870.0
301.8265,932.0
301.8953,859.0
301.9642,922.0
302.033,847.0
302.1019,909.0
302.1707,834.0
302.2396,903.0
302.3084,861.0
302.3772,921.0
302.4461,840.0
302.5149,883.0
302.5837,851.0
302.6526,904.0
302.7214,834.0
302.7902,898.0
302.859,853.0
302.9278,901.0
302.9966,868.0
303.0654,973.0
303.1342,819.0
303.203,896.0
303.2718,842.0
303.3406,918.0
303.4094,866.0
303.4781,903.0
303.547,876.0
303.6158,921.0
303.6845,831.0
303.7533,923.0
303.8221,851.0
303.8908,916.0
303.9596,828.0
304.0284,917.0
304.0971,837.0
304.1659,987.0
304.2346,842.0
304.3034,898.0
304.3721,830.0
304.4409,948.0
304.5096,861.0
304.5784,931.0
304.6471,833.0
304.7158,915.0
304.7845,848.0
304.8533,942.0
304.922,837.0
304.9907,934.0
305.0594,857.0
305.1281,932.0
305.1969,839.0
305.2656,904.0
305.3343,849.0
305.403,884.0
305.4717,852.0
305.5403,925.0
305.609,826.0
305.6778,920.0
305.7464,792.0
305.8151,892.0
305.8838,838.0
305.9525,913.0
306.0211,820.0
306.0898,938.0
306.1585,814.0
306.2271,949.0
306.2958,852.0
306.3645,924.0
306.4331,817.0
306.5017,913.0
306.5704,824.0
306.6391,950.0
306.7077,822.0
306.7763,906.0
306.845,826.0
306.9136,904.0
306.9822,799.0
307.0508,919.0
307.1195,889.0
307.1881,903.0
307.2567,862.0
307.3253,929.0
307.3939,821.0
307.4625,894.0
307.5312,787.0
307.5998,963.0
307.6684,836.0
307.7369,890.0
307.8055,837.0
307.8741,901.0
307.9427,787.0
308.0113,906.0
308.0799,815.0
308.1484,876.0
308.217,808.0
308.2856,857.0
308.3542,799.0
308.4227,897.0
308.4913,758.0
308.5598,910.0
308.6284,770.0
308.6969,923.0
308.7655,838.0
308.834,903.0
308.9026,837.0
308.9711,891.0
309.0396,781.0
309.1082,893.0
309.1767,773.0
309.2452,918.0
309.3138,797.0
309.3823,938.0
309.4508,802.0
309.5193,908.0
309.5878,849.0
309.6563,892.0
309.7249,825.0
309.7933,905.0
309.8618,820.0
309.9303,902.0
309.9988,808.0
310.0673,914.0
310.1358,844.0
310.2043,874.0
310.2728,843.0
310.3412,886.0
310.4097,845.0
310.4781,958.0
310.5466,833.0
310.6151,895.0
310.6836,873.0
310.752,896.0
310.8205,779.0
310.8889,908.0
310.9574,827.0
311.0258,934.0
311.0943,824.0
311.1627,929.0
311.2311,794.0
311.2996,867.0
311.368,843.0
311.4364,904.0
311.5049,790.0
311.5733,945.0
311.6417,809.0
311.7101,885.0
311.7785,814.0
311.8469,861.0
311.9153,864.0
311.9837,906.0
312.0521,824.0
312.1205,909.0
312.1889,768.0
312.2573,882.0
312.3257,751.0
312.3941,874.0
312.4624,844.0
312.5308,822.0
312.5992,783.0
312.6675,901.0
312.7359,803.0
312.8043,872.0
312.8727,813.0
312.941,921.0
313.0093,774.0
313.0777,869.0
313.1461,838.0
313.2144,892.0
313.2827,796.0
313.3511,879.0
313.4194,798.0
313.4877,859.0
313.5561,778.0
313.6244,870.0
313.6927,797.0
313.761,869.0
313.8294,725.0
313.8977,813.0
313.966,709.0
314.0343,858.0
314.1026,774.0
314.1709,866.0
314.2392,814.0
314.3075,884.0
314.3758,763.0
314.4441,853.0
314.5124,829.0
314.5806,875.0
314.6489,784.0
314.7172,893.0
314.7855,838.0
314.8537,854.0
314.922,773.0
314.9903,900.0
315.0585,782.0
315.1268,871.0
315.195,777.0
315.2633,920.0
315.3315,860.0
315.3998,855.0
315.468,791.0
315.5362,896.0
315.6045,792.0
315.6727,856.0
315.7409,795.0
315.8092,901.0
315.8774,802.0
315.9456,896.0
316.0138,806.0
316.082,911.0
316.1502,790.0
316.2184,915.0
316.2867,814.0
316.3549,909.0
316.423,791.0
316.4912,917.0
316.5594,795.0
316.6276,933.0
316.6958,846.0
316.764,925.0
316.8322,808.0
316.9003,913.0
316.9685,800.0
317.0367,923.0
317.1049,856.0
317.173,944.0
317.2411,852.0
317.3093,930.0
317.3774,829.0
317.4456,880.0
317.5137,808.0
317.5819,914.0
317.65,897.0
317.7182,958.0
317.7863,858.0
317.8545,936.0
317.9225,911.0
317.9907,936.0
318.0588,821.0
318.1269,929.0
318.195,872.0
318.2631,905.0
318.3312,834.0
318.3994,920.0
318.4675,814.0
318.5355,932.0
318.6036,830.0
318.6717,935.0
318.7398,844.0
318.8079,921.0
318.876,830.0
318.9441,947.0
319.0121,845.0
319.0802,936.0
319.1483,902.0
319.2164,925.0
319.2844,811.0
319.3525,962.0
319.4205,818.0
319.4886,945.0
319.5566,870.0
319.6247,909.0
319.6927,903.0
319.7608,947.0
319.8288,864.0
319.8968,971.0
319.9648,840.0
320.0329,973.0
320.1009,853.0
320.1689,918.0
320.237,863.0
320.305,920.0
320.373,830.0
320.441,912.0
320.509,839.0
320.577,961.0
320.645,878.0
320.713,895.0
320.781,860.0
320.849,931.0
320.917,836.0
320.985,953.0
321.0529,863.0
321.1209,984.0
321.1889,849.0
321.2568,866.0
321.3248,886.0
321.3928,919.0
321.4608,824.0
321.5287,922.0
321.5966,821.0
321.6646,945.0
321.7325,845.0
321.8005,922.0
321.8684,883.0
321.9364,928.0
322.0043,860.0
322.0722,952.0
322.1401,845.0
322.2081,927.0
322.276,866.0
322.344,922.0
322.4119,868.0
322.4797,958.0
322.5477,863.0
322.6156,907.0
322.6835,847.0
322.7514,962.0
322.8193,841.0
322.8871,921.0
322.955,865.0
323.0229,955.0
323.0908,857.0
323.1588,902.0
323.2266,836.0
323.2945,916.0
323.3623,813.0
323.4302,950.0
323.4981,857.0
323.5659,932.0
323.6338,866.0
323.7016,920.0
323.7695,845.0
323.8373,952.0
323.9052,880.0
323.973,947.0
324.0409,874.0
324.1087,968.0
324.1765,858.0
324.2444,946.0
324.3122,841.0
324.38,953.0
324.4479,828.0
324.5157,961.0
324.5834,851.0
324.6512,956.0
324.7191,928.0
324.7869,902.0
324.8547,892.0
324.9225,965.0
324.9903,842.0
325.058,974.0
325.1259,887.0
325.1936,974.0
325.2614,838.0
325.3292,973.0
325.397,875.0
325.4647,937.0
325.5325,833.0
325.6002,903.0
325.668,830.0
325.7358,943.0
325.8036,866.0
325.8713,964.0
325.939,857.0
326.0068,935.0
326.0745,885.0
326.1422,915.0
326.21,854.0
326.2777,958.0
326.3455,811.0
326.4132,966.0
326.4809,883.0
326.5486,961.0
326.6164,861.0
326.6841,927.0
326.7518,879.0
326.8195,969.0
326.8872,850.0
326.9549,1020.0
327.0226,839.0
327.0903,955.0
327.158,856.0
327.2256,945.0
327.2933,886.0
327.361,989.0
327.4287,865.0
327.4964,962.0
327.5641,898.0
327.6317,941.0
327.6994,838.0
327.767,964.0
327.8347,835.0
327.9023,943.0
327.97,874.0
328.0376,933.0
328.1053,864.0
328.1729,939.0
328.2406,917.0
328.3082,935.0
328.3759,866.0
328.4435,932.0
328.5111,841.0
328.5787,950.0
328.6463,867.0
328.7139,977.0
328.7816,866.0
328.8492,954.0
328.9168,823.0
328.9843,919.0
329.052,864.0
329.1196,879.0
329.1872,835.0
329.2548,917.0
329.3224,821.0
329.3899,902.0
329.4575,801.0
329.5251,917.0
329.5927,784.0
329.6602,950.0
329.7278,839.0
329.7953,892.0
329.8629,834.0
329.9305,926.0
329.998,793.0
330.0656,911.0
330.1331,828.0
330.2007,887.0
330.2682,795.0
330.3358,934.0
330.4033,805.0
330.4708,906.0
330.5383,817.0
330.6059,927.0
330.6734,819.0
330.7409,918.0
330.8084,817.0
330.876,938.0
330.9435,823.0
331.011,891.0
331.0784,821.0
331.1459,884.0
331.2134,853.0
331.2809,891.0
331.3484,819.0
331.4159,882.0
331.4834,846.0
331.5508,910.0
331.6183,817.0
331.6858,881.0
331.7533,803.0
331.8207,933.0
331.8882,853.0
331.9557,898.0
332.0231,844.0
332.0906,901.0
332.1581,814.0
332.2255,892.0
332.2929,801.0
332.3604,882.0
332.4278,842.0
332.4952,877.0
332.5627,812.0
332.6301,876.0
332.6975,825.0
332.7649,909.0
332.8323,844.0
332.8997,944.0
332.9672,846.0
333.0346,878.0
333.102,820.0
333.1694,876.0
333.2368,866.0
333.3042,891.0
333.3716,787.0
333.439,942.0
333.5063,822.0
333.5737,939.0
333.6411,855.0
333.7085,907.0
333.7758,835.0
333.8432,919.0
333.9106,865.0
333.9779,911.0
334.0453,785.0
334.1126,949.0
334.18,863.0
334.2473,902.0
334.3147,831.0
334.382,934.0
334.4494,820.0
334.5167,949.0
334.584,843.0
334.6514,933.0
334.7187,807.0
334.786,976.0
334.8533,828.0
334.9206,891.0
334.9879,810.0
335.0553,899.0
335.1226,790.0
335.1899,962.0
335.2572,831.0
335.3245,927.0
335.3918,833.0
335.459,923.0
335.5263,869.0
335.5936,915.0
335.6609,831.0
335.7282,924.0
335.7954,841.0
335.8627,954.0
335.93,865.0
335.9973,917.0
336.0645,786.0
336.1318,898.0
336.199,825.0
336.2662,928.0
336.3335,842.0
336.4008,931.0
336.468,845.0
336.5352,952.0
336.6024,858.0
336.6697,931.0
336.7369,811.0
336.8041,894.0
336.8714,772.0
336.9386,891.0
337.0058,829.0
337.073,925.0
337.1402,799.0
337.2074,934.0
337.2746,873.0
337.3418,922.0
337.409,830.0
337.4762,875.0
337.5434,823.0
337.6106,940.0
337.6777,795.0
337.7449,889.0
337.8121,811.0
337.8792,845.0
337.9464,818.0
338.0135,925.0
338.0807,818.0
338.1479,933.0
338.2151,776.0
338.2822,879.0
338.3493,804.0
338.4165,907.0
338.4836,796.0
338.5508,930.0
338.6179,811.0
338.6851,880.0
338.7521,839.0
338.8193,894.0
338.8864,855.0
338.9535,913.0
339.0206,838.0
339.0878,885.0
339.1548,819.0
339.222,949.0
339.289,820.0
339.3561,945.0
339.4233,832.0
339.4904,917.0
339.5574,812.0
339.6245,888.0
339.6916,814.0
339.7587,894.0
339.8257,830.0
339.8929,908.0
339.9599,832.0
340.0269,885.0
340.094,831.0
340.1611,907.0
340.2281,782.0
340.2952,850.0
340.3622,800.0
340.4293,849.0
340.4963,771.0
340.5633,893.0
340.6304,817.0
340.6974,880.0
340.7645,770.0
340.8315,861.0
340.8985,794.0
340.9655,910.0
341.0325,770.0
341.0995,895.0
341.1665,828.0
341.2335,873.0
341.3005,821.0
341.3675,921.0
341.4345,805.0
341.5015,888.0
341.5685,812.0
341.6355,900.0
341.7025,784.0
341.7694,922.0
341.8364,804.0
341.9034,920.0
341.9704,826.0
342.0373,870.0
342.1043,751.0
342.1712,916.0
342.2382,784.0
342.3051,903.0
342.3721,761.0
342.4391,887.0
342.506,804.0
342.5729,870.0
342.6398,793.0
342.7068,884.0
342.7737,769.0
342.8406,890.0
342.9076,831.0
342.9745,890.0
343.0414,802.0
343.1083,898.0
343.1752,807.0
343.2421,853.0
343.309,791.0
343.3759,895.0
343.4428,847.0
343.5097,929.0
343.5766,808.0
343.6434,889.0
343.7104,833.0
343.7772,883.0
343.8441,830.0
343.9109,872.0
343.9778,856.0
344.0447,904.0
344.1116,833.0
344.1784,915.0
344.2453,852.0
344.3121,924.0
344.3789,776.0
344.4458,924.0
344.5127,779.0
344.5795,910.0
344.6463,806.0
344.7131,924.0
344.78,830.0
344.8468,915.0
344.9136,793.0
344.9805,909.0
345.0473,832.0
345.1141,929.0
345.1809,835.0
345.2477,896.0
345.3145,828.0
345.3813,926.0
345.4481,848.0
345.5149,921.0
345.5816,798.0
345.6484,928.0
345.7152,859.0
345.782,938.0
345.8488,832.0
345.9155,879.0
345.9823,820.0
346.049,917.0
346.1158,853.0
346.1826,892.0
346.2493,875.0
346.3161,914.0
346.3828,838.0
346.4496,912.0
346.5163,848.0
346.5831,891.0
346.6498,853.0
346.7165,915.0
346.7832,822.0
346.85,902.0
346.9167,823.0
346.9834,898.0
347.0501,823.0
347.1168,903.0
347.1835,865.0
347.2502,943.0
347.3169,867.0
347.3836,879.0
347.4503,837.0
347.517,906.0
347.5837,873.0
347.6504,963.0
347.717,825.0
347.7837,964.0
347.8504,841.0
347.9171,912.0
347.9837,809.0
348.0504,942.0
348.1171,810.0
348.1837,916.0
348.2504,906.0
348.317,944.0
348.3837,827.0
348.4503,907.0
348.5169,806.0
348.5836,903.0
348.6502,836.0
348.7169,935.0
348.7835,903.0
348.8501,917.0
348.9167,829.0
348.9833,966.0
349.0499,849.0
349.1165,897.0
349.1832,820.0
349.2498,926.0
349.3163,829.0
349.3829,946.0
349.4495,842.0
349.5161,896.0
349.5827,817.0
349.6493,966.0
349.7159,807.0
349.7824,953.0
349.849,848.0
349.9156,950.0
349.9821,849.0
350.0487,963.0
350.1153,864.0
350.1818,922.0
350.2484,835.0
350.3149,934.0
350.3814,861.0
350.448,902.0
350.5146,827.0
350.5811,931.0
350.6476,881.0
350.7141,944.0
350.7807,867.0
350.8472,957.0
350.9137,819.0
350.9802,942.0
351.0467,896.0
351.1132,939.0
351.1797,884.0
351.2462,915.0
351.3127,861.0
351.3792,946.0
351.4457,807.0
351.5122,916.0
351.5787,889.0
351.6451,936.0
351.7116,895.0
351.7781,985.0
351.8446,876.0
351.911,942.0
351.9775,878.0
352.044,1005.0
352.1104,908.0
352.1769,968.0
352.2433,859.0
352.3098,967.0
352.3762,908.0
352.4427,950.0
352.5091,866.0
352.5755,935.0
352.642,885.0
352.7084,984.0
352.7748,921.0
352.8412,1005.0
352.9077,907.0
352.9741,990.0
353.0405,892.0
353.1068,1012.0
353.1732,892.0
353.2396,1015.0
353.306,911.0
353.3724,982.0
353.4388,904.0
353.5052,1002.0
353.5716,925.0
353.638,993.0
353.7043,969.0
353.7707,1020.0
353.8371,859.0
353.9034,1018.0
353.9698,970.0
354.0362,1028.0
354.1025,932.0
354.1689,1013.0
354.2352,965.0
354.3016,995.0
354.3679,972.0
354.4342,1064.0
354.5005,938.0
354.5669,1016.0
354.6332,985.0
354.6996,1048.0
354.7659,1000.0
354.8322,1029.0
354.8985,956.0
354.9648,1054.0
355.0311,944.0
355.0974,1034.0
355.1637,976.0
355.23,1034.0
355.2963,925.0
355.3625,1008.0
355.4289,925.0
355.4952,1068.0
355.5614,921.0
355.6277,1004.0
355.694,986.0
355.7603,1008.0
355.8265,934.0
355.8928,1030.0
355.959,974.0
356.0253,1039.0
356.0916,902.0
356.1578,1009.0
356.224,959.0
356.2903,991.0
356.3565,951.0
356.4228,1017.0
356.489,906.0
356.5552,981.0
356.6214,925.0
356.6876,961.0
356.7539,900.0
356.8201,1031.0
356.8863,936.0
356.9525,1010.0
357.0187,890.0
357.0849,958.0
357.1511,857.0
357.2173,938.0
357.2835,901.0
357.3497,955.0
357.4158,937.0
357.482,994.0
357.5482,947.0
357.6144,1048.0
357.6805,959.0
357.7467,1058.0
357.8128,961.0
357.879,1093.0
357.9452,1014.0
358.0114,1185.0
358.0775,1099.0
358.1436,1272.0
358.2097,1150.0
358.2759,1349.0
358.342,1270.0
358.4082,1433.0
358.4743,1250.0
358.5404,1333.0
358.6065,1188.0
358.6726,1139.0
358.7387,1000.0
358.8049,1121.0
358.871,1068.0
358.9371,1216.0
359.0032,1011.0
359.0693,1006.0
359.1353,838.0
359.2014,918.0
359.2676,874.0
359.3336,945.0
359.3997,811.0
359.4658,943.0
359.5318,889.0
359.5979,925.0
359.664,780.0
359.7301,897.0
359.7961,853.0
359.8622,920.0
359.9282,784.0
359.9943,932.0
360.0603,814.0
360.1264,938.0
360.1924,822.0
360.2585,894.0
360.3244,816.0
360.3905,867.0
360.4565,797.0
360.5225,921.0
360.5885,869.0
360.6546,938.0
360.7206,787.0
360.7866,916.0
360.8526,814.0
360.9185,918.0
360.9846,823.0
361.0506,889.0
361.1165,808.0
361.1825,875.0
361.2485,819.0
361.3145,923.0
361.3805,826.0
361.4465,878.0
361.5124,809.0
361.5784,877.0
361.6443,793.0
361.7103,883.0
361.7762,817.0
361.8422,970.0
361.9082,840.0
361.9741,906.0
362.04,833.0
362.106,900.0
362.1719,817.0
362.2379,874.0
362.3038,803.0
362.3697,918.0
362.4356,804.0
362.5015,928.0
362.5675,837.0
362.6334,951.0
362.6993,853.0
362.7652,924.0
362.8311,798.0
362.8969,926.0
362.9629,845.0
363.0287,920.0
363.0947,832.0
363.1605,965.0
363.2264,855.0
363.2923,896.0
363.3582,828.0
363.424,892.0
363.4899,836.0
363.5557,879.0
363.6216,836.0
363.6874,888.0
363.7533,828.0
363.8191,876.0
363.885,805.0
363.9508,900.0
364.0167,760.0
364.0825,944.0
364.1483,830.0
364.2142,946.0
364.28,826.0
364.3458,924.0
364.4116,830.0
364.4774,909.0
364.5432,801.0
364.609,935.0
364.6748,808.0
364.7406,899.0
364.8065,822.0
364.8722,892.0
364.938,819.0
365.0038,908.0
365.0696,863.0
365.1354,931.0
365.2011,788.0
365.2669,923.0
365.3326,818.0
365.3984,875.0
365.4642,851.0
365.5299,902.0
365.5957,801.0
365.6614,949.0
365.7272,841.0
365.7929,921.0
365.8587,803.0
365.9244,940.0
365.9902,830.0
366.0559,918.0
366.1216,866.0
366.1873,877.0
366.253,826.0
366.3188,947.0
366.3845,839.0
366.4502,917.0
366.5159,848.0
366.5816,931.0
366.6473,839.0
366.713,847.0
366.7787,814.0
366.8444,912.0
366.91,799.0
366.9757,915.0
367.0414,837.0
367.1071,941.0
367.1727,828.0
367.2384,911.0
367.3041,789.0
367.3697,898.0
367.4354,816.0
367.501,882.0
367.5667,801.0
367.6323,912.0
367.698,807.0
367.7636,906.0
367.8292,805.0
367.8948,876.0
367.9605,776.0
368.0261,851.0
368.0918,781.0
368.1573,888.0
368.223,770.0
368.2885,916.0
368.3542,831.0
368.4198,890.0
368.4854,782.0
368.551,837.0
368.6165,752.0
368.6821,885.0
368.7477,771.0
368.8133,865.0
368.8789,812.0
368.9445,864.0
369.01,764.0
369.0756,903.0
369.1411,806.0
369.2067,908.0
369.2723,762.0
369.3379,876.0
369.4034,777.0
369.4689,821.0
369.5345,774.0
369.6,867.0
369.6656,750.0
369.7311,870.0
369.7966,764.0
369.8622,847.0
369.9277,797.0
369.9932,913.0
370.0587,761.0
370.1242,860.0
370.1897,749.0
370.2552,842.0
370.3207,754.0
370.3862,836.0
370.4517,802.0
370.5172,868.0
370.5827,785.0
370.6482,879.0
370.7136,806.0
370.7791,845.0
370.8446,814.0
370.9101,900.0
370.9756,789.0
371.041,877.0
371.1064,792.0
371.1719,859.0
371.2373,812.0
371.3028,826.0
371.3683,840.0
371.4337,882.0
371.4991,809.0
371.5646,870.0
371.63,819.0
371.6954,904.0
371.7608,785.0
371.8263,906.0
371.8917,831.0
371.9571,889.0
372.0225,806.0
372.0879,870.0
372.1533,837.0
372.2187,923.0
372.2841,850.0
372.3495,885.0
372.4149,799.0
372.4803,904.0
372.5457,831.0
372.611,945.0
372.6764,794.0
372.7418,921.0
372.8071,824.0
372.8725,937.0
372.9379,836.0
373.0032,897.0
373.0686,798.0
373.1339,934.0
373.1992,796.0
373.2646,938.0
373.3299,872.0
373.3953,919.0
373.4606,831.0
373.5259,918.0
373.5912,847.0
373.6566,918.0
373.7219,855.0
373.7872,891.0
373.8525,859.0
373.9178,909.0
373.9831,833.0
374.0484,909.0
374.1137,857.0
374.179,921.0
374.2443,818.0
374.3096,992.0
374.3749,830.0
374.4401,934.0
374.5054,840.0
374.5706,909.0
374.636,870.0
374.7012,943.0
374.7665,869.0
374.8318,920.0
374.897,874.0
374.9622,913.0
375.0275,839.0
375.0927,950.0
375.158,894.0
375.2232,935.0
375.2885,842.0
375.3537,909.0
375.4189,829.0
375.4841,937.0
375.5493,871.0
375.6145,979.0
375.6797,884.0
375.745,934.0
375.8101,868.0
375.8754,915.0
375.9406,867.0
376.0057,984.0
376.071,887.0
376.1361,992.0
376.2013,891.0
376.2665,929.0
376.3317,870.0
376.3969,931.0
376.462,860.0
376.5272,999.0
376.5923,896.0
376.6575,983.0
376.7226,891.0
376.7878,980.0
376.8529,849.0
376.9181,1004.0
376.9832,929.0
377.0483,905.0
377.1135,930.0
377.1786,946.0
377.2437,912.0
377.3089,956.0
377.374,922.0
377.4391,991.0
377.5042,927.0
377.5693,956.0
377.6344,876.0
377.6995,981.0
377.7646,881.0
377.8297,1003.0
377.8948,958.0
377.9599,986.0
378.025,892.0
378.09,980.0
378.1551,915.0
378.2202,983.0
378.2852,901.0
378.3503,988.0
378.4154,942.0
378.4804,1083.0
378.5455,949.0
378.6105,1012.0
378.6755,978.0
378.7406,1013.0
378.8057,1027.0
378.8707,1064.0
378.9357,992.0
379.0008,1061.0
379.0658,968.0
379.1308,1117.0
379.1958,1058.0
379.2609,1044.0
379.3259,992.0
379.3908,1104.0
379.4558,1012.0
379.5208,1117.0
379.5858,1014.0
379.6509,1076.0
379.7159,1054.0
379.7808,1108.0
379.8458,1034.0
379.9108,1141.0
379.9758,1070.0
380.0407,1145.0
380.1057,1078.0
380.1707,1127.0
380.2356,1068.0
380.3006,1197.0
380.3655,1074.0
380.4305,1153.0
380.4955,1063.0
380.5604,1194.0
380.6253,1064.0
380.6902,1175.0
380.7552,1082.0
380.8201,1201.0
380.885,1155.0
380.95,1186.0
381.0149,1185.0
381.0798,1251.0
381.1447,1140.0
381.2096,1313.0
381.2745,1217.0
381.3394,1268.0
381.4043,1213.0
381.4692,1300.0
381.5341,1180.0
381.5989,1274.0
381.6638,1146.0
381.7287,1276.0
381.7936,1202.0
381.8585,1378.0
381.9233,1261.0
381.9882,1399.0
382.053,1238.0
382.1179,1371.0
382.1828,1307.0
382.2476,1330.0
382.3124,1255.0
382.3773,1391.0
382.4421,1367.0
382.507,1391.0
382.5718,1281.0
382.6366,1383.0
382.7014,1361.0
382.7663,1363.0
382.8311,1295.0
382.8959,1462.0
382.9607,1291.0
383.0255,1412.0
383.0903,1381.0
383.1551,1503.0
383.2199,1391.0
383.2847,1455.0
383.3495,1366.0
383.4143,1454.0
383.479,1395.0
383.5438,1425.0
383.6086,1323.0
383.6734,1455.0
383.7381,1395.0
383.8029,1523.0
383.8676,1418.0
383.9324,1447.0
383.9972,1413.0
384.0619,1479.0
384.1266,1473.0
384.1914,1513.0
384.2562,1435.0
384.3209,1540.0
384.3856,1491.0
384.4503,1648.0
384.515,1536.0
384.5797,1715.0
384.6445,1652.0
384.7092,1713.0
384.7739,1734.0
384.8386,1966.0
384.9033,1847.0
384.968,1976.0
385.0327,1918.0
385.0974,1915.0
385.162,1741.0
385.2267,1775.0
385.2914,1862.0
385.3561,2019.0
385.4208,1849.0
385.4854,1798.0
385.5501,1689.0
385.6147,1691.0
385.6794,1807.0
385.7441,1838.0
385.8087,1821.0
385.8734,1960.0
385.938,1911.0
386.0027,2055.0
386.0673,2219.0
386.1319,2006.0
386.1966,1714.0
386.2612,1713.0
386.3258,1545.0
386.3904,1633.0
386.455,1539.0
386.5196,1703.0
386.5843,1766.0
386.6489,1914.0
386.7135,1958.0
386.778,2105.0
386.8426,2201.0
386.9072,2395.0
386.9718,2485.0
387.0364,2601.0
387.101,2150.0
387.1655,1748.0
387.2301,1373.0
387.2946,1400.0
387.3593,1346.0
387.4238,1425.0
387.4884,1408.0
387.5529,1542.0
387.6175,1534.0
387.682,1729.0
387.7466,1700.0
387.8111,2000.0
387.8756,2073.0
387.9402,2261.0
388.0047,2476.0
388.0692,2802.0
388.1337,2898.0
388.1982,3240.0
388.2628,2864.0
388.3272,1982.0
388.3918,1291.0
388.4563,1171.0
388.5208,954.0
388.5852,978.0
388.6497,891.0
388.7142,893.0
388.7787,893.0
388.8432,971.0
388.9077,851.0
388.9721,923.0
389.0366,828.0
389.1011,930.0
389.1655,813.0
389.23,881.0
389.2944,863.0
389.3589,934.0
389.4233,851.0
389.4878,928.0
389.5522,848.0
389.6167,915.0
389.6811,821.0
389.7455,951.0
389.8099,856.0
389.8744,904.0
389.9388,883.0
390.0032,954.0
390.0676,855.0
390.132,948.0
390.1964,840.0
390.2608,935.0
390.3252,769.0
390.3896,917.0
390.454,876.0
390.5184,982.0
390.5827,869.0
390.6471,918.0
390.7115,846.0
390.7759,944.0
390.8402,869.0
390.9046,968.0
390.9689,877.0
391.0333,911.0
391.0977,846.0
391.162,948.0
391.2264,816.0
391.2907,962.0
391.355,939.0
391.4193,885.0
391.4837,880.0
391.548,956.0
391.6123,857.0
391.6767,971.0
391.741,850.0
391.8053,974.0
391.8696,828.0
391.9339,932.0
391.9982,871.0
392.0625,909.0
392.1268,875.0
392.1911,938.0
392.2553,884.0
392.3196,937.0
392.3839,846.0
392.4482,913.0
392.5125,877.0
392.5767,966.0
392.641,884.0
392.7053,935.0
392.7695,836.0
392.8338,1002.0
392.898,881.0
392.9622,964.0
393.0265,871.0
393.0908,1016.0
393.155,965.0
393.2192,1012.0
393.2834,976.0
393.3477,1001.0
393.4118,918.0
393.476,978.0
393.5403,856.0
393.6045,918.0
393.6687,890.0
393.7329,909.0
393.7971,899.0
393.8613,998.0
393.9255,847.0
393.9897,971.0
394.0539,874.0
394.118,949.0
394.1822,861.0
394.2464,961.0
394.3105,897.0
394.3747,919.0
394.4389,898.0
394.503,906.0
394.5672,810.0
394.6313,904.0
394.6954,863.0
394.7596,899.0
394.8238,889.0
394.8879,901.0
394.952,826.0
395.0161,895.0
395.0803,871.0
395.1444,910.0
395.2085,826.0
395.2726,951.0
395.3367,901.0
395.4008,939.0
395.4649,835.0
395.529,897.0
395.5931,837.0
395.6572,908.0
395.7213,867.0
395.7854,937.0
395.8495,856.0
395.9135,916.0
395.9776,850.0
396.0417,913.0
396.1057,878.0
396.1698,898.0
396.2339,846.0
396.2979,909.0
396.362,838.0
396.426,965.0
396.4901,857.0
396.5541,943.0
396.6181,842.0
396.6821,987.0
396.7462,868.0
396.8102,974.0
396.8743,871.0
396.9383,915.0
397.0023,861.0
397.0662,904.0
397.1302,813.0
397.1943,875.0
397.2583,835.0
397.3223,936.0
397.3862,864.0
397.4502,926.0
397.5142,809.0
397.5782,879.0
397.6422,828.0
397.7061,880.0
397.7701,827.0
397.8341,868.0
397.898,823.0
397.962,966.0
398.0259,820.0
398.0899,933.0
398.1538,800.0
398.2178,907.0
398.2817,819.0
398.3456,916.0
398.4096,836.0
398.4735,884.0
398.5374,841.0
398.6013,953.0
398.6653,856.0
398.7292,910.0
398.7931,852.0
398.857,938.0
398.9209,818.0
398.9848,924.0
399.0487,873.0
399.1125,970.0
399.1765,859.0
399.2404,915.0
399.3042,860.0
399.3681,942.0
399.432,807.0
399.4958,953.0
399.5597,861.0
399.6236,964.0
399.6875,861.0
399.7513,955.0
399.8152,864.0
399.879,984.0
399.9428,894.0
400.0067,1002.0
400.0705,815.0
400.1343,912.0
400.1982,830.0
400.262,953.0
400.3258,863.0
400.3896,939.0
400.4534,836.0
400.5172,919.0
400.581,832.0
400.6448,917.0
400.7086,901.0
400.7724,942.0
400.8362,827.0
400.9,910.0
400.9638,872.0
401.0276,972.0
401.0913,867.0
401.1551,929.0
401.2189,871.0
401.2826,914.0
401.3464,890.0
401.4102,929.0
401.4739,892.0
401.5376,949.0
401.6014,907.0
401.6651,929.0
401.7289,836.0
401.7926,934.0
401.8564,838.0
401.92,935.0
401.9838,860.0
402.0475,934.0
402.1112,885.0
402.175,977.0
402.2386,817.0
402.3023,944.0
402.366,845.0
402.4297,984.0
402.4934,902.0
402.5571,986.0
402.6208,912.0
402.6845,938.0
402.7482,872.0
402.8118,977.0
402.8755,901.0
402.9392,980.0
403.0028,889.0
403.0665,962.0
403.1301,894.0
403.1938,1006.0
403.2574,908.0
403.3211,992.0
403.3847,853.0
403.4484,963.0
403.512,885.0
403.5756,966.0
403.6393,912.0
403.7029,966.0
403.7665,903.0
403.8301,982.0
403.8937,897.0
403.9573,952.0
404.0209,883.0
404.0845,931.0
404.1481,857.0
404.2117,930.0
404.2753,892.0
404.3389,967.0
404.4024,871.0
404.466,960.0
404.5296,889.0
404.5932,1020.0
404.6567,933.0
404.7203,973.0
404.7838,888.0
404.8474,948.0
404.9109,862.0
404.9745,964.0
405.0381,848.0
405.1016,960.0
405.1651,886.0
405.2286,969.0
405.2922,908.0
405.3557,984.0
405.4193,870.0
405.4828,985.0
405.5462,954.0
405.6097,974.0
405.6733,876.0
405.7368,993.0
405.8003,882.0
405.8638,955.0
405.9272,893.0
405.9907,952.0
406.0542,882.0
406.1177,1003.0
406.1812,883.0
406.2446,986.0
406.3081,872.0
406.3716,999.0
406.435,903.0
406.4985,989.0
406.562,901.0
406.6254,942.0
406.6888,911.0
406.7523,1009.0
406.8157,860.0
406.8791,942.0
406.9426,889.0
407.006,971.0
407.0694,926.0
407.1328,1040.0
407.1962,923.0
407.2597,968.0
407.3231,919.0
407.3865,1053.0
407.4499,902.0
407.5133,1013.0
407.5767,956.0
407.64,971.0
407.7034,892.0
407.7668,1019.0
407.8302,938.0
407.8936,1006.0
407.9569,957.0
408.0203,1006.0
408.0836,885.0
408.147,1039.0
408.2104,893.0
408.2737,1054.0
408.3371,967.0
408.4004,1008.0
408.4637,927.0
408.5271,1046.0
408.5905,939.0
408.6537,989.0
408.7171,916.0
408.7804,1005.0
408.8437,957.0
408.907,1009.0
408.9703,922.0
409.0336,1030.0
409.0969,954.0
409.1602,1032.0
409.2235,962.0
409.2868,1013.0
409.3501,905.0
409.4134,1027.0
409.4767,936.0
409.5399,1013.0
409.6032,936.0
409.6665,984.0
409.7297,955.0
409.793,1046.0
409.8563,934.0
409.9195,1014.0
409.9827,960.0
410.046,993.0
410.1092,965.0
410.1725,1013.0
410.2357,951.0
410.299,990.0
410.3622,960.0
410.4254,1004.0
410.4886,948.0
410.5518,1017.0
410.615,923.0
410.6782,1020.0
410.7414,966.0
410.8046,1058.0
410.8678,850.0
410.931,1047.0
410.9942,912.0
411.0574,1055.0
411.1205,921.0
411.1837,1013.0
411.2469,933.0
411.3101,982.0
411.3733,913.0
411.4364,1032.0
411.4995,876.0
411.5627,974.0
411.6259,905.0
411.689,960.0
411.7521,926.0
411.8153,1028.0
411.8784,961.0
411.9415,1010.0
412.0046,920.0
412.0678,1011.0
412.1309,928.0
412.194,1006.0
412.2571,897.0
412.3203,978.0
412.3833,909.0
412.4464,1006.0
412.5096,905.0
412.5727,986.0
412.6357,933.0
412.6988,968.0
412.7619,955.0
412.825,1026.0
412.8881,933.0
412.9511,996.0
413.0142,914.0
413.0772,979.0
413.1403,919.0
413.2033,982.0
413.2664,922.0
413.3294,1035.0
413.3925,903.0
413.4555,1005.0
413.5186,925.0
413.5816,1013.0
413.6446,921.0
413.7076,1013.0
413.7707,876.0
413.8337,1028.0
413.8967,908.0
413.9597,984.0
414.0227,964.0
414.0857,1002.0
414.1487,910.0
414.2117,1020.0
414.2747,902.0
414.3376,1028.0
414.4006,943.0
414.4636,973.0
414.5266,936.0
414.5896,1007.0
414.6525,982.0
414.7155,1039.0
414.7784,970.0
414.8414,1036.0
414.9044,1009.0
414.9673,1069.0
415.0303,1083.0
415.0932,1111.0
415.1561,982.0
415.2191,1086.0
415.282,978.0
415.3449,1083.0
415.4079,951.0
415.4708,1045.0
415.5336,1037.0
415.5966,1027.0
415.6595,983.0
415.7224,1153.0
415.7853,964.0
415.8482,1016.0
415.9111,915.0
415.9739,1043.0
416.0368,976.0
416.0997,1060.0
416.1626,974.0
416.2255,997.0
416.2883,973.0
416.3512,1060.0
416.414,1020.0
416.4769,1081.0
416.5397,1032.0
416.6026,1118.0
416.6654,1002.0
416.7283,1106.0
416.7911,994.0
416.8539,1032.0
416.9167,973.0
416.9796,1031.0
417.0424,925.0
417.1052,1023.0
417.168,976.0
417.2308,1032.0
417.2936,969.0
417.3564,1052.0
417.4193,927.0
417.4821,984.0
417.5448,966.0
417.6076,1074.0
417.6704,974.0
417.7332,1081.0
417.796,1026.0
417.8587,1127.0
417.9215,1087.0
417.9842,1193.0
418.047,1048.0
418.1098,1061.0
418.1725,943.0
418.2353,1001.0
418.298,904.0
418.3607,962.0
418.4235,894.0
418.4862,1021.0
418.549,884.0
418.6117,994.0
418.6744,909.0
418.7371,991.0
418.7998,956.0
418.8625,990.0
418.9252,937.0
418.9879,990.0
419.0507,925.0
419.1133,1004.0
419.176,967.0
419.2387,1042.0
419.3014,969.0
419.3641,1060.0
419.4268,1052.0
419.4894,1125.0
419.5521,1033.0
419.6147,1126.0
419.6774,1026.0
419.7401,1026.0
419.8027,920.0
419.8654,998.0
419.928,829.0
419.9906,983.0
420.0533,891.0
420.1159,932.0
420.1785,909.0
420.2411,952.0
420.3038,889.0
420.3664,961.0
420.429,848.0
420.4916,990.0
420.5542,890.0
420.6168,956.0
420.6794,838.0
420.742,956.0
420.8046,913.0
420.8672,915.0
420.9297,902.0
420.9923,1013.0
421.0549,928.0
421.1175,1016.0
421.18,949.0
421.2426,995.0
421.3052,1036.0
421.3677,1064.0
421.4303,990.0
421.4928,1098.0
421.5554,965.0
421.6179,1004.0
421.6804,866.0
421.743,891.0
421.8055,887.0
421.868,944.0
421.9305,772.0
421.993,899.0
422.0556,823.0
422.1181,877.0
422.1806,774.0
422.2431,910.0
422.3055,821.0
422.368,947.0
422.4305,820.0
422.493,929.0
422.5555,815.0
422.618,904.0
422.6805,859.0
422.7429,878.0
422.8054,854.0
422.8679,925.0
422.9303,774.0
422.9928,949.0
423.0552,839.0
423.1177,901.0
423.1801,804.0
423.2425,925.0
423.305,844.0
423.3674,911.0
423.4298,852.0
423.4922,942.0
423.5547,822.0
423.617,906.0
423.6795,791.0
423.7419,950.0
423.8043,857.0
423.8667,935.0
423.9291,879.0
423.9915,947.0
424.0538,877.0
424.1163,938.0
424.1786,833.0
424.241,937.0
424.3034,875.0
424.3658,940.0
424.4281,913.0
424.4905,916.0
424.5529,898.0
424.6152,981.0
424.6775,858.0
424.7399,948.0
424.8022,898.0
424.8646,941.0
424.9269,882.0
424.9892,925.0
425.0515,914.0
425.1139,991.0
425.1762,916.0
425.2385,955.0
425.3008,918.0
425.3631,981.0
425.4254,913.0
425.4877,982.0
425.55,913.0
425.6123,987.0
425.6746,898.0
425.7369,986.0
425.7992,935.0
425.8614,968.0
425.9237,937.0
425.9859,959.0
426.0482,913.0
426.1105,981.0
426.1727,928.0
426.235,968.0
426.2972,945.0
426.3595,988.0
426.4217,900.0
426.4839,1026.0
426.5462,914.0
426.6084,974.0
426.6706,958.0
426.7328,986.0
426.795,941.0
426.8573,991.0
426.9195,871.0
426.9817,969.0
427.0439,947.0
427.1061,1000.0
427.1683,923.0
427.2305,965.0
427.2927,896.0
427.3549,927.0
427.417,914.0
427.4792,975.0
427.5413,868.0
427.6035,966.0
427.6657,899.0
427.7278,971.0
427.79,903.0
427.8521,996.0
427.9142,893.0
427.9764,977.0
428.0386,887.0
428.1007,959.0
428.1628,916.0
428.2249,970.0
428.287,930.0
428.3492,959.0
428.4113,855.0
428.4734,996.0
428.5355,877.0
428.5976,957.0
428.6597,911.0
428.7218,975.0
428.7839,840.0
428.846,920.0
428.9081,876.0
428.9702,967.0
429.0322,855.0
429.0943,932.0
429.1563,894.0
429.2184,972.0
429.2805,897.0
429.3425,905.0
429.4046,868.0
429.4666,913.0
429.5287,834.0
429.5908,942.0
429.6528,854.0
429.7148,912.0
429.7768,810.0
429.8388,873.0
429.9008,849.0
429.9629,925.0
430.0249,840.0
430.0869,925.0
430.1489,850.0
430.2109,940.0
430.2729,852.0
430.3349,896.0
430.3969,848.0
430.4589,943.0
430.5208,842.0
430.5828,904.0
430.6448,798.0
430.7068,916.0
430.7688,819.0
430.8307,903.0
430.8926,824.0
430.9546,893.0
431.0165,824.0
431.0785,909.0
431.1404,823.0
431.2024,928.0
431.2643,882.0
431.3262,936.0
431.3881,822.0
431.4501,899.0
431.512,808.0
431.5739,903.0
431.6358,770.0
431.6977,881.0
431.7596,763.0
431.8215,856.0
431.8834,813.0
431.9453,895.0
432.0072,834.0
432.0691,853.0
432.131,856.0
432.1928,906.0
432.2547,747.0
432.3165,821.0
432.3784,704.0
432.4403,846.0
432.5021,809.0
432.564,891.0
432.6258,784.0
432.6876,888.0
432.7495,797.0
432.8113,870.0
432.8732,807.0
432.935,874.0
432.9968,774.0
433.0586,890.0
433.1204,775.0
433.1823,885.0
433.2441,755.0
433.3059,843.0
433.3677,789.0
433.4295,875.0
433.4912,792.0
433.5531,875.0
433.6148,809.0
433.6766,898.0
433.7384,757.0
433.8001,886.0
433.8619,799.0
433.9237,896.0
433.9854,789.0
434.0472,898.0
434.1089,805.0
434.1707,889.0
434.2324,856.0
434.2942,908.0
434.3559,799.0
434.4177,938.0
434.4794,838.0
434.5411,916.0
434.6028,830.0
434.6645,883.0
434.7263,835.0
434.788,887.0
434.8497,880.0
434.9113,905.0
434.973,829.0
435.0347,909.0
435.0965,793.0
435.1581,916.0
435.2198,842.0
435.2815,902.0
435.3431,864.0
435.4048,882.0
435.4665,814.0
435.5282,919.0
435.5898,817.0
435.6515,898.0
435.7131,853.0
435.7747,921.0
435.8363,793.0
435.898,944.0
435.9597,835.0
436.0213,922.0
436.0829,856.0
436.1445,966.0
436.2061,884.0
436.2678,941.0
436.3294,933.0
436.391,1022.0
436.4525,919.0
436.5141,882.0
436.5757,824.0
436.6373,920.0
436.6989,871.0
436.7605,939.0
436.8221,879.0
436.8836,892.0
436.9452,832.0
437.0067,927.0
437.0684,885.0
437.1299,891.0
437.1914,820.0
437.253,922.0
437.3145,853.0
437.3761,916.0
437.4376,779.0
437.4992,894.0
437.5607,773.0
437.6222,878.0
437.6837,812.0
437.7452,901.0
437.8067,821.0
437.8683,852.0
437.9298,821.0
437.9913,908.0
438.0528,810.0
438.1143,880.0
438.1757,808.0
438.2372,884.0
438.2987,832.0
438.3602,867.0
438.4217,834.0
438.4831,872.0
438.5446,816.0
438.6061,904.0
438.6675,805.0
438.729,847.0
438.7904,782.0
438.8519,896.0
438.9133,802.0
438.9747,902.0
439.0362,769.0
439.0976,867.0
439.159,812.0
439.2204,859.0
439.2819,759.0
439.3433,906.0
439.4047,821.0
439.4661,846.0
439.5275,847.0
439.5889,877.0
439.6503,791.0
439.7116,832.0
439.7731,829.0
439.8345,955.0
439.8958,784.0
439.9572,893.0
440.0186,814.0
440.0799,856.0
440.1413,773.0
440.2027,942.0
440.264,798.0
440.3253,887.0
440.3867,814.0
440.448,918.0
440.5093,813.0
440.5707,953.0
440.632,771.0
440.6934,905.0
440.7546,813.0
440.816,926.0
440.8773,782.0
440.9386,851.0
440.9999,846.0
441.0612,872.0
441.1225,831.0
441.1838,835.0
441.2451,819.0
441.3063,883.0
441.3677,810.0
441.429,875.0
441.4902,795.0
441.5515,867.0
441.6127,797.0
441.674,873.0
441.7353,855.0
441.7965,887.0
441.8578,781.0
441.919,872.0
441.9802,810.0
442.0414,895.0
442.1027,799.0
442.164,894.0
442.2252,824.0
442.2864,897.0
442.3476,791.0
442.4088,885.0
442.47,831.0
442.5312,922.0
442.5924,780.0
442.6536,899.0
442.7148,778.0
442.776,867.0
442.8372,771.0
442.8984,850.0
442.9596,817.0
443.0207,893.0
443.0819,779.0
443.143,877.0
443.2042,751.0
443.2653,872.0
443.3265,810.0
443.3877,873.0
443.4488,792.0
443.5099,931.0
443.5711,824.0
443.6322,897.0
443.6934,782.0
443.7545,918.0
443.8156,809.0
443.8767,910.0
443.9378,826.0
443.9989,895.0
444.0601,811.0
444.1212,940.0
444.1822,831.0
444.2433,883.0
444.3044,861.0
444.3654,885.0
444.4265,826.0
444.4877,923.0
444.5487,793.0
444.6098,876.0
444.6708,852.0
444.7319,881.0
444.7929,819.0
444.854,878.0
444.915,862.0
444.9761,894.0
445.0371,774.0
445.0981,873.0
445.1592,799.0
445.2203,871.0
445.2812,811.0
445.3423,897.0
445.4033,790.0
445.4643,861.0
445.5253,843.0
445.5862,943.0
445.6473,790.0
445.7083,909.0
445.7693,814.0
445.8303,901.0
445.8912,855.0
445.9522,865.0
446.0132,800.0
446.0742,879.0
446.1352,828.0
446.1961,885.0
446.257,788.0
446.318,878.0
446.379,783.0
446.4399,848.0
446.5009,810.0
446.5618,886.0
446.6227,773.0
446.6836,889.0
446.7446,810.0
446.8055,861.0
446.8664,817.0
446.9273,890.0
446.9883,804.0
447.0491,885.0
447.11,790.0
447.171,888.0
447.2319,745.0
447.2927,892.0
447.3536,766.0
447.4145,855.0
447.4753,810.0
447.5363,846.0
447.5971,800.0
447.658,853.0
447.7188,769.0
447.7797,835.0
447.8405,767.0
447.9014,850.0
447.9623,742.0
448.0231,832.0
448.0839,747.0
448.1447,827.0
448.2056,715.0
448.2664,827.0
448.3272,794.0
448.3881,827.0
448.4489,779.0
448.5096,843.0
448.5705,771.0
448.6312,821.0
448.6921,817.0
448.7529,869.0
448.8137,765.0
448.8744,807.0
448.9352,820.0
448.9959,828.0
449.0567,796.0
449.1175,868.0
449.1783,741.0
449.239,864.0
449.2998,750.0
449.3605,836.0
449.4213,750.0
449.4821,822.0
449.5428,736.0
449.6035,847.0
449.6642,770.0
449.725,803.0
449.7857,759.0
449.8464,854.0
449.9071,727.0
449.9679,821.0
450.0285,753.0
450.0892,873.0
450.1499,755.0
450.2106,781.0
450.2714,734.0
450.332,798.0
450.3927,724.0
450.4534,819.0
450.514,774.0
450.5747,811.0
450.6354,769.0
450.696,846.0
450.7567,713.0
450.8174,827.0
450.878,763.0
450.9386,842.0
450.9993,747.0
451.0599,876.0
451.1206,743.0
451.1812,795.0
451.2418,775.0
451.3024,789.0
451.363,720.0
451.4236,825.0
451.4843,709.0
451.5449,859.0
451.6054,800.0
451.666,806.0
451.7267,758.0
451.7873,818.0
451.8478,715.0
451.9084,848.0
451.969,701.0
452.0295,827.0
452.0901,773.0
452.1507,809.0
452.2113,698.0
452.2718,764.0
452.3324,715.0
452.3929,796.0
452.4534,738.0
452.5139,859.0
452.5745,708.0
452.635,809.0
452.6956,732.0
452.7561,793.0
452.8166,771.0
452.8771,796.0
452.9377,722.0
452.9981,832.0
453.0586,742.0
453.1191,857.0
453.1796,766.0
453.2401,813.0
453.3006,752.0
453.3611,783.0
453.4216,738.0
453.4821,767.0
453.5425,774.0
453.6029,826.0
453.6634,741.0
453.7239,809.0
453.7844,817.0
453.8448,875.0
453.9052,723.0
453.9656,844.0
454.0261,768.0
454.0866,870.0
454.147,745.0
454.2074,835.0
454.2678,760.0
454.3282,824.0
454.3886,769.0
454.449,820.0
454.5095,781.0
454.5699,844.0
454.6302,778.0
454.6906,858.0
454.751,744.0
454.8114,864.0
454.8718,750.0
454.9322,847.0
454.9925,761.0
455.0529,836.0
455.1133,780.0
455.1736,857.0
455.234,793.0
455.2943,870.0
455.3547,812.0
455.415,890.0
455.4753,762.0
455.5357,820.0
455.5959,733.0
455.6563,878.0
455.7167,749.0
455.777,839.0
455.8373,786.0
455.8976,790.0
455.9579,801.0
456.0182,840.0
456.0785,767.0
456.1388,841.0
456.1991,763.0
456.2593,852.0
456.3196,742.0
456.3799,885.0
456.4402,824.0
456.5005,815.0
456.5607,786.0
456.621,813.0
456.6812,790.0
456.7414,852.0
456.8018,839.0
456.862,831.0
456.9222,764.0
456.9825,887.0
457.0426,774.0
457.1028,837.0
457.1631,771.0
457.2234,856.0
457.2835,753.0
457.3438,853.0
457.404,770.0
457.4641,871.0
457.5244,808.0
457.5846,848.0
457.6447,792.0
457.7049,869.0
457.7651,787.0
457.8253,890.0
457.8854,780.0
457.9456,846.0
458.0058,746.0
458.0659,821.0
458.1261,809.0
458.1862,862.0
458.2464,775.0
458.3066,887.0
458.3667,822.0
458.4268,866.0
458.4869,791.0
458.5471,693.0
458.6072,647.0
458.6674,669.0
458.7274,613.0
458.7876,709.0
458.8477,646.0
458.9077,677.0
458.9679,604.0
459.0279,702.0
459.0881,592.0
459.1481,701.0
459.2082,578.0
459.2683,710.0
459.3283,635.0
459.3884,722.0
459.4485,640.0
459.5086,719.0
459.5686,573.0
459.6287,685.0
459.6887,619.0
459.7487,694.0
459.8088,663.0
459.8688,732.0
459.9289,650.0
459.9889,713.0
460.0489,651.0
460.1089,737.0
460.1689,660.0
460.229,691.0
460.289,606.0
