Laser settings:
	Diode frequency:	5 Hz
	Pulses fired:		105
	Q-Switch blanking:	5
	Q-Switch delay:		201 μs
	Q-Switch presync:	1 μs
Spectrometer settings:
	Integration time:	0.0090 ms
	Integration delay:	0.000 ns
	Averaging:		1
	Trigger mode:		External
	Dynamic Dark Correction:		Disabled


wavelength,intensity
184.9409,664.0
185.0142,613.0
185.0875,664.0
185.1608,649.0
185.2341,688.0
185.3074,610.0
185.3807,732.0
185.454,650.0
185.5273,682.0
185.6006,614.0
185.6739,699.0
185.7472,584.0
185.8205,677.0
185.8938,627.0
185.9671,737.0
186.0403,597.0
186.1136,668.0
186.1869,634.0
186.2601,691.0
186.3334,570.0
186.4067,688.0
186.4799,600.0
186.5532,655.0
186.6265,653.0
186.6997,679.0
186.773,642.0
186.8462,670.0
186.9195,621.0
186.9928,666.0
187.066,653.0
187.1392,699.0
187.2125,669.0
187.2857,718.0
187.3589,585.0
187.4322,692.0
187.5054,683.0
187.5786,722.0
187.6519,635.0
187.7251,732.0
187.7983,628.0
187.8715,745.0
187.9447,637.0
188.018,709.0
188.0912,636.0
188.1644,730.0
188.2376,622.0
188.3108,716.0
188.384,634.0
188.4572,696.0
188.5304,641.0
188.6036,727.0
188.6768,652.0
188.75,697.0
188.8232,636.0
188.8963,680.0
188.9695,661.0
189.0427,702.0
189.1159,626.0
189.1891,732.0
189.2623,696.0
189.3354,724.0
189.4086,649.0
189.4818,713.0
189.5549,678.0
189.6281,734.0
189.7012,658.0
189.7744,704.0
189.8476,648.0
189.9207,699.0
189.9939,659.0
190.067,717.0
190.1402,682.0
190.2133,722.0
190.2864,659.0
190.3596,751.0
190.4327,680.0
190.5059,695.0
190.579,679.0
190.6521,721.0
190.7253,657.0
190.7984,730.0
190.8715,645.0
190.9446,757.0
191.0177,654.0
191.0908,730.0
191.164,653.0
191.2371,748.0
191.3102,644.0
191.3833,681.0
191.4564,665.0
191.5295,750.0
191.6026,664.0
191.6757,762.0
191.7488,662.0
191.8219,726.0
191.895,685.0
191.968,746.0
192.0411,685.0
192.1142,763.0
192.1873,663.0
192.2604,786.0
192.3334,677.0
192.4065,786.0
192.4796,699.0
192.5527,795.0
192.6257,651.0
192.6988,772.0
192.7718,763.0
192.8449,781.0
192.918,773.0
192.991,899.0
193.064,954.0
193.1371,1013.0
193.2101,950.0
193.2832,956.0
193.3562,803.0
193.4292,861.0
193.5023,752.0
193.5753,851.0
193.6484,740.0
193.7214,821.0
193.7944,694.0
193.8674,816.0
193.9405,721.0
194.0135,814.0
194.0865,686.0
194.1595,805.0
194.2325,706.0
194.3055,788.0
194.3785,683.0
194.4515,781.0
194.5246,734.0
194.5975,807.0
194.6705,684.0
194.7435,763.0
194.8165,686.0
194.8895,765.0
194.9625,697.0
195.0355,788.0
195.1085,679.0
195.1815,763.0
195.2544,694.0
195.3274,798.0
195.4004,714.0
195.4734,755.0
195.5463,663.0
195.6193,739.0
195.6923,713.0
195.7652,791.0
195.8382,703.0
195.9111,773.0
195.9841,717.0
196.057,792.0
196.13,737.0
196.2029,795.0
196.2759,678.0
196.3488,758.0
196.4218,726.0
196.4947,786.0
196.5676,725.0
196.6406,809.0
196.7135,677.0
196.7864,805.0
196.8593,693.0
196.9323,770.0
197.0052,770.0
197.0781,802.0
197.151,690.0
197.2239,798.0
197.2969,685.0
197.3697,783.0
197.4427,671.0
197.5156,759.0
197.5885,709.0
197.6614,732.0
197.7343,651.0
197.8072,769.0
197.88,689.0
197.9529,740.0
198.0258,682.0
198.0987,759.0
198.1716,696.0
198.2445,776.0
198.3173,688.0
198.3902,747.0
198.4631,703.0
198.5359,824.0
198.6088,628.0
198.6817,748.0
198.7545,727.0
198.8274,755.0
198.9003,708.0
198.9731,778.0
199.046,690.0
199.1188,785.0
199.1917,725.0
199.2645,800.0
199.3373,695.0
199.4102,771.0
199.483,674.0
199.5559,712.0
199.6287,724.0
199.7015,741.0
199.7744,735.0
199.8472,757.0
199.92,688.0
199.9928,748.0
200.0656,728.0
200.1385,787.0
200.2113,692.0
200.2841,792.0
200.3569,692.0
200.4297,768.0
200.5025,683.0
200.5753,750.0
200.6481,702.0
200.7209,770.0
200.7937,700.0
200.8665,753.0
200.9393,665.0
201.0121,773.0
201.0848,689.0
201.1576,784.0
201.2304,696.0
201.3032,772.0
201.3759,728.0
201.4487,754.0
201.5215,710.0
201.5943,764.0
201.667,710.0
201.7398,736.0
201.8125,675.0
201.8853,775.0
201.958,672.0
202.0308,767.0
202.1035,712.0
202.1763,773.0
202.249,705.0
202.3218,750.0
202.3945,701.0
202.4673,772.0
202.54,752.0
202.6127,790.0
202.6855,675.0
202.7582,738.0
202.8309,702.0
202.9036,778.0
202.9764,675.0
203.0491,801.0
203.1218,697.0
203.1945,791.0
203.2672,707.0
203.3399,789.0
203.4126,692.0
203.4853,818.0
203.558,703.0
203.6307,743.0
203.7034,672.0
203.7761,766.0
203.8488,697.0
203.9215,773.0
203.9942,655.0
204.0669,798.0
204.1395,685.0
204.2122,784.0
204.2849,692.0
204.3576,773.0
204.4302,667.0
204.5029,798.0
204.5756,742.0
204.6482,728.0
204.7209,724.0
204.7935,763.0
204.8662,689.0
204.9389,791.0
205.0115,688.0
205.0842,826.0
205.1568,717.0
205.2294,748.0
205.3021,709.0
205.3747,758.0
205.4474,737.0
205.52,750.0
205.5926,690.0
205.6653,788.0
205.7379,691.0
205.8105,772.0
205.8831,697.0
205.9557,759.0
206.0284,688.0
206.101,785.0
206.1736,696.0
206.2462,764.0
206.3188,689.0
206.3914,726.0
206.464,706.0
206.5366,776.0
206.6092,676.0
206.6818,756.0
206.7544,689.0
206.827,755.0
206.8996,700.0
206.9721,744.0
207.0447,698.0
207.1173,732.0
207.1899,723.0
207.2625,794.0
207.335,738.0
207.4076,761.0
207.4802,710.0
207.5527,771.0
207.6253,683.0
207.6978,791.0
207.7704,716.0
207.843,771.0
207.9155,679.0
207.9881,749.0
208.0606,721.0
208.1331,766.0
208.2057,713.0
208.2782,781.0
208.3508,746.0
208.4233,796.0
208.4958,731.0
208.5684,790.0
208.6409,694.0
208.7134,759.0
208.7859,732.0
208.8584,771.0
208.931,673.0
209.0035,721.0
209.076,671.0
209.1485,770.0
209.221,693.0
209.2935,782.0
209.366,740.0
209.4385,807.0
209.511,695.0
209.5835,814.0
209.656,697.0
209.7285,774.0
209.801,655.0
209.8735,787.0
209.9459,707.0
210.0184,786.0
210.0909,701.0
210.1634,763.0
210.2358,721.0
210.3083,775.0
210.3808,689.0
210.4532,730.0
210.5257,697.0
210.5982,746.0
210.6706,691.0
210.7431,736.0
210.8155,699.0
210.888,738.0
210.9604,689.0
211.0329,717.0
211.1053,654.0
211.1777,709.0
211.2502,697.0
211.3226,730.0
211.3951,686.0
211.4675,765.0
211.5399,730.0
211.6123,766.0
211.6847,709.0
211.7572,803.0
211.8296,692.0
211.902,801.0
211.9744,709.0
212.0468,720.0
212.1192,649.0
212.1917,788.0
212.264,698.0
212.3364,762.0
212.4088,702.0
212.4812,766.0
212.5536,722.0
212.626,749.0
212.6984,683.0
212.7708,795.0
212.8432,707.0
212.9155,799.0
212.9879,684.0
213.0603,755.0
213.1326,675.0
213.205,751.0
213.2774,727.0
213.3498,766.0
213.4221,721.0
213.4945,735.0
213.5668,697.0
213.6392,767.0
213.7115,695.0
213.7839,802.0
213.8562,693.0
213.9286,768.0
214.0009,757.0
214.0732,767.0
214.1456,735.0
214.2179,736.0
214.2903,706.0
214.3626,774.0
214.4349,673.0
214.5072,747.0
214.5796,680.0
214.6519,723.0
214.7242,719.0
214.7965,816.0
214.8688,727.0
214.9411,766.0
215.0134,681.0
215.0857,815.0
215.158,716.0
215.2303,797.0
215.3026,743.0
215.3749,780.0
215.4472,749.0
215.5195,808.0
215.5918,712.0
215.6641,769.0
215.7363,744.0
215.8086,814.0
215.8809,722.0
215.9532,762.0
216.0254,718.0
216.0977,750.0
216.17,665.0
216.2422,801.0
216.3145,719.0
216.3867,803.0
216.459,707.0
216.5313,822.0
216.6035,730.0
216.6758,795.0
216.748,717.0
216.8202,771.0
216.8925,731.0
216.9647,807.0
217.037,735.0
217.1092,816.0
217.1814,647.0
217.2536,799.0
217.3259,723.0
217.3981,777.0
217.4703,716.0
217.5425,793.0
217.6147,743.0
217.687,787.0
217.7592,756.0
217.8314,808.0
217.9035,674.0
217.9758,781.0
218.048,725.0
218.1201,818.0
218.1924,730.0
218.2645,799.0
218.3367,740.0
218.4089,814.0
218.4811,743.0
218.5533,845.0
218.6255,743.0
218.6976,784.0
218.7698,755.0
218.842,807.0
218.9142,700.0
218.9863,761.0
219.0585,764.0
219.1306,809.0
219.2028,769.0
219.2749,824.0
219.3471,726.0
219.4193,792.0
219.4914,730.0
219.5636,798.0
219.6357,758.0
219.7078,779.0
219.78,716.0
219.8521,769.0
219.9242,761.0
219.9964,839.0
220.0685,779.0
220.1406,802.0
220.2128,782.0
220.2849,752.0
220.357,765.0
220.4291,827.0
220.5012,735.0
220.5733,809.0
220.6454,760.0
220.7175,814.0
220.7896,743.0
220.8617,835.0
220.9338,744.0
221.0059,810.0
221.078,753.0
221.1501,803.0
221.2222,749.0
221.2943,846.0
221.3663,741.0
221.4384,832.0
221.5105,757.0
221.5826,808.0
221.6546,765.0
221.7267,808.0
221.7988,746.0
221.8708,844.0
221.9429,760.0
222.015,822.0
222.087,764.0
222.1591,803.0
222.2311,760.0
222.3032,838.0
222.3752,757.0
222.4473,804.0
222.5193,729.0
222.5913,786.0
222.6634,733.0
222.7354,820.0
222.8074,756.0
222.8795,832.0
222.9515,725.0
223.0235,782.0
223.0955,752.0
223.1675,794.0
223.2395,734.0
223.3116,838.0
223.3836,753.0
223.4556,850.0
223.5276,771.0
223.5996,847.0
223.6716,759.0
223.7436,784.0
223.8156,729.0
223.8876,825.0
223.9595,737.0
224.0315,791.0
224.1035,764.0
224.1755,844.0
224.2475,766.0
224.3195,838.0
224.3914,741.0
224.4634,870.0
224.5354,762.0
224.6073,813.0
224.6793,783.0
224.7512,836.0
224.8232,751.0
224.8952,801.0
224.9671,728.0
225.0391,831.0
225.111,778.0
225.1829,837.0
225.2549,806.0
225.3268,816.0
225.3988,789.0
225.4707,837.0
225.5426,806.0
225.6146,869.0
225.6865,790.0
225.7584,834.0
225.8303,802.0
225.9022,857.0
225.9742,802.0
226.0461,819.0
226.118,783.0
226.1899,867.0
226.2618,778.0
226.3337,837.0
226.4056,785.0
226.4775,869.0
226.5494,811.0
226.6213,855.0
226.6932,816.0
226.7651,846.0
226.8369,794.0
226.9088,861.0
226.9807,799.0
227.0526,872.0
227.1245,785.0
227.1963,863.0
227.2682,772.0
227.3401,899.0
227.4119,756.0
227.4838,836.0
227.5556,795.0
227.6275,858.0
227.6993,789.0
227.7712,810.0
227.8431,786.0
227.9149,817.0
227.9867,789.0
228.0586,812.0
228.1304,769.0
228.2023,829.0
228.2741,766.0
228.3459,854.0
228.4177,814.0
228.4896,866.0
228.5614,770.0
228.6332,789.0
228.705,759.0
228.7768,871.0
228.8486,771.0
228.9205,869.0
228.9923,796.0
229.0641,903.0
229.1359,843.0
229.2077,893.0
229.2794,838.0
229.3513,946.0
229.423,915.0
229.4948,1111.0
229.5666,1120.0
229.6384,1357.0
229.7102,1315.0
229.782,1203.0
229.8537,905.0
229.9255,900.0
229.9973,836.0
230.069,839.0
230.1408,759.0
230.2126,844.0
230.2843,754.0
230.3561,858.0
230.4278,745.0
230.4996,817.0
230.5713,760.0
230.6431,855.0
230.7148,721.0
230.7866,774.0
230.8583,746.0
230.93,778.0
231.0018,749.0
231.0735,838.0
231.1452,737.0
231.2169,857.0
231.2887,743.0
231.3604,852.0
231.4321,755.0
231.5038,784.0
231.5755,788.0
231.6472,813.0
231.7189,736.0
231.7906,819.0
231.8624,778.0
231.9341,830.0
232.0057,750.0
232.0774,840.0
232.1491,761.0
232.2208,817.0
232.2925,755.0
232.3642,865.0
232.4359,746.0
232.5075,864.0
232.5792,772.0
232.6509,835.0
232.7225,776.0
232.7942,815.0
232.8659,750.0
232.9375,830.0
233.0092,749.0
233.0809,824.0
233.1525,775.0
233.2242,837.0
233.2958,783.0
233.3675,828.0
233.4391,768.0
233.5107,837.0
233.5824,722.0
233.654,813.0
233.7256,732.0
233.7973,820.0
233.8689,748.0
233.9405,803.0
234.0121,768.0
234.0838,796.0
234.1554,750.0
234.227,810.0
234.2986,707.0
234.3702,832.0
234.4418,722.0
234.5134,861.0
234.585,749.0
234.6566,813.0
234.7282,710.0
234.7998,811.0
234.8714,712.0
234.943,820.0
235.0146,730.0
235.0862,825.0
235.1577,789.0
235.2293,770.0
235.3009,730.0
235.3725,801.0
235.444,778.0
235.5156,836.0
235.5872,731.0
235.6587,799.0
235.7303,742.0
235.8018,821.0
235.8734,736.0
235.9449,845.0
236.0165,755.0
236.088,849.0
236.1596,754.0
236.2311,808.0
236.3026,776.0
236.3742,813.0
236.4457,770.0
236.5172,813.0
236.5887,766.0
236.6603,810.0
236.7318,718.0
236.8033,843.0
236.8748,724.0
236.9464,823.0
237.0179,791.0
237.0894,829.0
237.1609,757.0
237.2324,790.0
237.3039,721.0
237.3754,853.0
237.4469,744.0
237.5184,876.0
237.5898,773.0
237.6613,842.0
237.7328,832.0
237.8043,852.0
237.8758,762.0
237.9472,836.0
238.0187,737.0
238.0902,862.0
238.1617,776.0
238.2331,871.0
238.3046,808.0
238.376,814.0
238.4475,773.0
238.519,818.0
238.5904,779.0
238.6618,830.0
238.7333,769.0
238.8047,866.0
238.8762,783.0
238.9476,871.0
239.0191,761.0
239.0905,866.0
239.1619,751.0
239.2334,893.0
239.3048,755.0
239.3762,862.0
239.4476,791.0
239.519,839.0
239.5904,810.0
239.6619,879.0
239.7333,771.0
239.8047,857.0
239.8761,757.0
239.9475,865.0
240.0189,737.0
240.0903,861.0
240.1617,802.0
240.233,880.0
240.3044,752.0
240.3758,890.0
240.4472,738.0
240.5186,841.0
240.59,780.0
240.6613,846.0
240.7327,755.0
240.8041,851.0
240.8754,762.0
240.9468,850.0
241.0181,761.0
241.0895,847.0
241.1609,767.0
241.2322,843.0
241.3036,783.0
241.3749,896.0
241.4462,757.0
241.5176,877.0
241.5889,779.0
241.6602,871.0
241.7316,776.0
241.8029,858.0
241.8743,770.0
241.9456,871.0
242.0169,773.0
242.0882,850.0
242.1595,793.0
242.2309,843.0
242.3022,781.0
242.3735,876.0
242.4448,751.0
242.5161,850.0
242.5874,797.0
242.6587,850.0
242.73,762.0
242.8013,845.0
242.8726,767.0
242.9438,840.0
243.0151,785.0
243.0864,829.0
243.1577,764.0
243.229,893.0
243.3002,766.0
243.3715,854.0
243.4428,770.0
243.5141,816.0
243.5853,808.0
243.6566,891.0
243.7278,769.0
243.7991,845.0
243.8703,764.0
243.9416,898.0
244.0128,787.0
244.0841,840.0
244.1553,758.0
244.2266,882.0
244.2978,771.0
244.369,875.0
244.4402,782.0
244.5115,869.0
244.5827,767.0
244.6539,849.0
244.7251,799.0
244.7964,851.0
244.8676,816.0
244.9388,869.0
245.01,808.0
245.0812,849.0
245.1524,817.0
245.2236,826.0
245.2948,826.0
245.366,822.0
245.4372,772.0
245.5084,856.0
245.5796,761.0
245.6507,815.0
245.7219,823.0
245.7931,838.0
245.8643,788.0
245.9355,842.0
246.0066,775.0
246.0778,845.0
246.149,747.0
246.2201,824.0
246.2913,749.0
246.3624,811.0
246.4336,674.0
246.5047,849.0
246.5759,712.0
246.647,806.0
246.7182,751.0
246.7893,845.0
246.8605,764.0
246.9316,840.0
247.0027,741.0
247.0739,841.0
247.145,732.0
247.2161,828.0
247.2872,744.0
247.3584,844.0
247.4295,768.0
247.5006,866.0
247.5717,778.0
247.6428,930.0
247.7139,942.0
247.785,1044.0
247.8561,1095.0
247.9272,1275.0
247.9983,1117.0
248.0694,1087.0
248.1405,908.0
248.2116,939.0
248.2827,817.0
248.3537,878.0
248.4248,749.0
248.4959,872.0
248.5669,787.0
248.638,866.0
248.7091,767.0
248.7802,862.0
248.8512,738.0
248.9223,903.0
248.9933,775.0
249.0644,789.0
249.1354,769.0
249.2065,817.0
249.2775,775.0
249.3486,853.0
249.4196,766.0
249.4906,822.0
249.5617,778.0
249.6327,803.0
249.7037,764.0
249.7747,865.0
249.8458,745.0
249.9168,889.0
249.9878,797.0
250.0588,802.0
250.1298,774.0
250.2009,808.0
250.2719,788.0
250.3429,858.0
250.4138,759.0
250.4849,871.0
250.5558,766.0
250.6268,880.0
250.6978,805.0
250.7688,893.0
250.8398,853.0
250.9108,999.0
250.9818,904.0
251.0527,998.0
251.1237,908.0
251.1947,998.0
251.2657,929.0
251.3366,976.0
251.4076,813.0
251.4785,846.0
251.5495,771.0
251.6205,844.0
251.6914,788.0
251.7623,878.0
251.8333,793.0
251.9042,831.0
251.9752,780.0
252.0461,900.0
252.1171,747.0
252.188,816.0
252.2589,753.0
252.3298,864.0
252.4008,762.0
252.4717,837.0
252.5426,758.0
252.6135,860.0
252.6844,768.0
252.7553,837.0
252.8262,760.0
252.8971,851.0
252.9681,788.0
253.039,852.0
253.1098,788.0
253.1808,830.0
253.2516,753.0
253.3225,806.0
253.3934,750.0
253.4643,816.0
253.5352,741.0
253.606,826.0
253.6769,751.0
253.7478,871.0
253.8187,834.0
253.8895,820.0
253.9604,729.0
254.0312,855.0
254.1021,733.0
254.173,809.0
254.2438,718.0
254.3147,844.0
254.3855,771.0
254.4563,848.0
254.5272,782.0
254.598,863.0
254.6689,768.0
254.7397,817.0
254.8105,754.0
254.8813,865.0
254.9522,751.0
255.023,846.0
255.0938,724.0
255.1646,859.0
255.2354,736.0
255.3062,853.0
255.3771,771.0
255.4479,856.0
255.5187,757.0
255.5894,854.0
255.6603,762.0
255.731,847.0
255.8018,754.0
255.8726,882.0
255.9434,761.0
256.0142,865.0
256.085,713.0
256.1558,835.0
256.2265,755.0
256.2973,792.0
256.3681,778.0
256.4388,886.0
256.5096,741.0
256.5804,839.0
256.6511,742.0
256.7219,851.0
256.7926,761.0
256.8634,882.0
256.9341,767.0
257.0049,855.0
257.0756,771.0
257.1463,810.0
257.2171,773.0
257.2878,837.0
257.3585,751.0
257.4292,835.0
257.5,749.0
257.5707,828.0
257.6414,736.0
257.7122,805.0
257.7828,737.0
257.8535,842.0
257.9243,754.0
257.995,866.0
258.0657,814.0
258.1364,782.0
258.2071,799.0
258.2777,809.0
258.3484,761.0
258.4191,827.0
258.4898,759.0
258.5605,817.0
258.6312,742.0
258.7018,850.0
258.7725,765.0
258.8432,745.0
258.9139,714.0
258.9845,789.0
259.0552,711.0
259.1259,816.0
259.1965,720.0
259.2672,823.0
259.3378,742.0
259.4085,829.0
259.4791,712.0
259.5497,796.0
259.6204,719.0
259.691,827.0
259.7617,758.0
259.8323,832.0
259.9029,752.0
259.9735,803.0
260.0442,709.0
260.1147,807.0
260.1854,742.0
260.256,818.0
260.3267,727.0
260.3972,844.0
260.4678,775.0
260.5384,839.0
260.6091,749.0
260.6796,845.0
260.7502,786.0
260.8208,843.0
260.8914,741.0
260.962,810.0
261.0326,792.0
261.1032,809.0
261.1737,781.0
261.2444,804.0
261.3149,761.0
261.3854,832.0
261.456,728.0
261.5266,830.0
261.5971,782.0
261.6677,860.0
261.7383,778.0
261.8088,840.0
261.8794,763.0
261.9499,829.0
262.0205,758.0
262.091,847.0
262.1615,778.0
262.2321,849.0
262.3026,786.0
262.3731,845.0
262.4437,767.0
262.5142,851.0
262.5847,744.0
262.6552,827.0
262.7257,772.0
262.7962,891.0
262.8668,779.0
262.9373,866.0
263.0078,795.0
263.0783,848.0
263.1488,757.0
263.2193,811.0
263.2898,751.0
263.3603,877.0
263.4307,812.0
263.5012,880.0
263.5717,797.0
263.6422,847.0
263.7127,836.0
263.7831,844.0
263.8536,782.0
263.9241,844.0
263.9945,813.0
264.065,878.0
264.1354,770.0
264.2059,827.0
264.2764,768.0
264.3468,856.0
264.4173,743.0
264.4877,881.0
264.5581,735.0
264.6286,844.0
264.699,764.0
264.7694,855.0
264.8399,748.0
264.9103,823.0
264.9807,744.0
265.0511,824.0
265.1216,767.0
265.192,852.0
265.2625,747.0
265.3328,846.0
265.4032,742.0
265.4736,795.0
265.5441,806.0
265.6144,807.0
265.6848,733.0
265.7552,849.0
265.8256,769.0
265.896,845.0
265.9664,755.0
266.0368,822.0
266.1071,764.0
266.1775,780.0
266.2479,746.0
266.3183,787.0
266.3886,723.0
266.459,796.0
266.5294,684.0
266.5998,855.0
266.6701,719.0
266.7404,847.0
266.8108,720.0
266.8812,794.0
266.9515,733.0
267.0219,851.0
267.0922,787.0
267.1625,818.0
267.2328,741.0
267.3032,852.0
267.3735,729.0
267.4438,811.0
267.5142,757.0
267.5845,840.0
267.6548,778.0
267.7251,832.0
267.7954,675.0
267.8657,780.0
267.936,728.0
268.0063,801.0
268.0766,764.0
268.1469,811.0
268.2172,744.0
268.2875,824.0
268.3578,724.0
268.4281,806.0
268.4984,753.0
268.5686,812.0
268.6389,726.0
268.7092,796.0
268.7794,749.0
268.8498,824.0
268.92,724.0
268.9902,789.0
269.0605,774.0
269.1308,814.0
269.201,762.0
269.2713,814.0
269.3415,720.0
269.4118,793.0
269.482,743.0
269.5523,845.0
269.6225,727.0
269.6927,816.0
269.7629,726.0
269.8332,803.0
269.9034,748.0
269.9736,805.0
270.0439,714.0
270.114,827.0
270.1843,767.0
270.2545,794.0
270.3247,762.0
270.3949,753.0
270.4651,759.0
270.5353,835.0
270.6055,741.0
270.6757,801.0
270.7459,772.0
270.8161,843.0
270.8863,745.0
270.9564,808.0
271.0266,782.0
271.0968,806.0
271.167,737.0
271.2371,836.0
271.3073,780.0
271.3775,835.0
271.4476,747.0
271.5178,856.0
271.588,778.0
271.6581,820.0
271.7282,769.0
271.7984,843.0
271.8685,698.0
271.9387,829.0
272.0088,766.0
272.0789,882.0
272.1491,779.0
272.2192,833.0
272.2893,796.0
272.3595,817.0
272.4296,783.0
272.4997,839.0
272.5698,706.0
272.64,828.0
272.7101,786.0
272.7802,837.0
272.8503,777.0
272.9204,849.0
272.9904,768.0
273.0605,891.0
273.1306,778.0
273.2007,856.0
273.2708,766.0
273.3409,870.0
273.411,757.0
273.481,803.0
273.5511,790.0
273.6212,843.0
273.6913,749.0
273.7614,856.0
273.8314,833.0
273.9015,857.0
273.9715,793.0
274.0416,848.0
274.1116,780.0
274.1817,876.0
274.2517,794.0
274.3217,896.0
274.3918,818.0
274.4619,888.0
274.5319,774.0
274.602,857.0
274.6719,808.0
274.742,855.0
274.812,802.0
274.882,847.0
274.952,770.0
275.0221,898.0
275.0921,799.0
275.1621,877.0
275.2321,797.0
275.3021,897.0
275.3721,753.0
275.4421,871.0
275.5121,770.0
275.5821,894.0
275.6521,806.0
275.722,890.0
275.792,833.0
275.862,871.0
275.932,785.0
276.002,877.0
276.0719,789.0
276.1418,848.0
276.2119,779.0
276.2818,886.0
276.3517,736.0
276.4218,864.0
276.4917,806.0
276.5616,859.0
276.6316,779.0
276.7015,884.0
276.7715,788.0
276.8414,833.0
276.9113,735.0
276.9813,861.0
277.0512,820.0
277.1211,824.0
277.191,786.0
277.261,851.0
277.3309,756.0
277.4008,878.0
277.4707,840.0
277.5406,867.0
277.6105,757.0
277.6804,802.0
277.7503,773.0
277.8202,848.0
277.8901,747.0
277.96,864.0
278.0299,791.0
278.0998,820.0
278.1697,752.0
278.2396,821.0
278.3094,764.0
278.3793,877.0
278.4492,724.0
278.519,818.0
278.5889,786.0
278.6588,868.0
278.7286,760.0
278.7985,824.0
278.8683,803.0
278.9382,867.0
279.0081,800.0
279.0779,812.0
279.1477,744.0
279.2176,821.0
279.2874,769.0
279.3572,890.0
279.4271,794.0
279.4969,842.0
279.5667,800.0
279.6365,788.0
279.7063,759.0
279.7762,865.0
279.846,775.0
279.9158,846.0
279.9856,782.0
280.0554,857.0
280.1252,816.0
280.195,875.0
280.2648,809.0
280.3346,881.0
280.4044,804.0
280.4742,888.0
280.544,783.0
280.6137,888.0
280.6835,792.0
280.7533,846.0
280.8231,802.0
280.8928,885.0
280.9626,780.0
281.0323,872.0
281.1021,821.0
281.1719,917.0
281.2416,822.0
281.3114,862.0
281.3811,804.0
281.4509,914.0
281.5206,764.0
281.5904,905.0
281.6601,785.0
281.7299,874.0
281.7996,791.0
281.8693,902.0
281.939,828.0
282.0088,862.0
282.0784,757.0
282.1482,887.0
282.2179,827.0
282.2876,882.0
282.3573,813.0
282.427,906.0
282.4967,845.0
282.5664,849.0
282.6361,831.0
282.7058,922.0
282.7755,805.0
282.8452,884.0
282.9149,794.0
282.9845,907.0
283.0542,793.0
283.1239,866.0
283.1936,808.0
283.2632,881.0
283.3329,805.0
283.4026,944.0
283.4722,825.0
283.5419,918.0
283.6115,812.0
283.6812,924.0
283.7508,846.0
283.8205,900.0
283.8901,833.0
283.9597,930.0
284.0294,868.0
284.099,915.0
284.1686,854.0
284.2383,928.0
284.3079,787.0
284.3775,876.0
284.4471,827.0
284.5168,905.0
284.5864,810.0
284.656,847.0
284.7256,840.0
284.7952,867.0
284.8648,772.0
284.9344,887.0
285.004,787.0
285.0736,860.0
285.1432,787.0
285.2128,882.0
285.2823,783.0
285.3519,883.0
285.4215,814.0
285.4911,867.0
285.5606,779.0
285.6302,865.0
285.6998,759.0
285.7693,843.0
285.8389,787.0
285.9084,841.0
285.978,784.0
286.0475,817.0
286.1171,793.0
286.1866,831.0
286.2562,766.0
286.3257,850.0
286.3952,760.0
286.4648,832.0
286.5343,763.0
286.6039,835.0
286.6733,787.0
286.7429,850.0
286.8124,740.0
286.8819,839.0
286.9514,763.0
287.0209,871.0
287.0904,735.0
287.1599,856.0
287.2294,851.0
287.299,875.0
287.3684,773.0
287.4379,869.0
287.5074,816.0
287.5769,869.0
287.6464,759.0
287.7159,876.0
287.7853,788.0
287.8548,852.0
287.9243,784.0
287.9937,841.0
288.0632,806.0
288.1327,864.0
288.2021,732.0
288.2716,882.0
288.341,776.0
288.4105,859.0
288.4799,782.0
288.5493,892.0
288.6188,767.0
288.6882,832.0
288.7577,747.0
288.8271,879.0
288.8965,770.0
288.9659,905.0
289.0354,784.0
289.1048,847.0
289.1742,753.0
289.2436,859.0
289.313,786.0
289.3824,856.0
289.4518,823.0
289.5212,878.0
289.5906,741.0
289.66,839.0
289.7294,798.0
289.7988,859.0
289.8682,811.0
289.9376,880.0
290.007,835.0
290.0764,911.0
290.1457,815.0
290.2151,873.0
290.2844,804.0
290.3538,871.0
290.4232,773.0
290.4925,849.0
290.5619,756.0
290.6312,858.0
290.7006,775.0
290.7699,852.0
290.8393,806.0
290.9086,898.0
290.978,855.0
291.0473,871.0
291.1166,818.0
291.1859,859.0
291.2553,803.0
291.3246,917.0
291.3939,823.0
291.4632,877.0
291.5325,787.0
291.6018,899.0
291.6712,804.0
291.7405,905.0
291.8098,828.0
291.8791,863.0
291.9484,799.0
292.0176,894.0
292.0869,848.0
292.1562,848.0
292.2255,793.0
292.2948,903.0
292.3641,799.0
292.4334,898.0
292.5026,800.0
292.5719,886.0
292.6412,827.0
292.7104,883.0
292.7797,867.0
292.8489,904.0
292.9182,803.0
292.9875,897.0
293.0567,801.0
293.1259,887.0
293.1952,838.0
293.2644,897.0
293.3336,792.0
293.4029,888.0
293.4721,765.0
293.5413,909.0
293.6106,824.0
293.6798,884.0
293.749,808.0
293.8182,916.0
293.8875,836.0
293.9566,888.0
294.0259,800.0
294.0951,902.0
294.1642,806.0
294.2334,884.0
294.3026,810.0
294.3718,872.0
294.441,823.0
294.5102,897.0
294.5794,834.0
294.6485,915.0
294.7177,788.0
294.7869,895.0
294.8561,804.0
294.9253,957.0
294.9944,759.0
295.0636,902.0
295.1327,799.0
295.2019,894.0
295.271,778.0
295.3402,843.0
295.4093,807.0
295.4785,895.0
295.5476,823.0
295.6168,877.0
295.6859,797.0
295.755,899.0
295.8241,783.0
295.8932,885.0
295.9623,816.0
296.0315,904.0
296.1006,809.0
296.1697,891.0
296.2388,794.0
296.3079,838.0
296.377,836.0
296.4461,902.0
296.5152,787.0
296.5843,881.0
296.6534,805.0
296.7225,914.0
296.7916,819.0
296.8606,911.0
296.9297,802.0
296.9988,870.0
297.0679,799.0
297.137,901.0
297.206,793.0
297.2751,875.0
297.3441,801.0
297.4132,863.0
297.4823,796.0
297.5513,896.0
297.6204,815.0
297.6894,856.0
297.7584,801.0
297.8275,952.0
297.8965,792.0
297.9655,923.0
298.0346,822.0
298.1036,910.0
298.1726,828.0
298.2417,882.0
298.3106,869.0
298.3797,913.0
298.4487,835.0
298.5177,918.0
298.5867,815.0
298.6557,920.0
298.7247,844.0
298.7937,923.0
298.8627,859.0
298.9317,913.0
299.0007,836.0
299.0696,918.0
299.1386,807.0
299.2076,907.0
299.2766,830.0
299.3456,900.0
299.4145,863.0
299.4835,869.0
299.5524,841.0
299.6214,909.0
299.6903,796.0
299.7593,911.0
299.8282,820.0
299.8972,882.0
299.9661,870.0
300.0351,908.0
300.104,845.0
300.173,908.0
300.2419,845.0
300.3108,943.0
300.3797,852.0
300.4487,982.0
300.5176,832.0
300.5865,866.0
300.6554,845.0
300.7243,888.0
300.7932,803.0
300.8621,928.0
300.931,855.0
300.9999,908.0
301.0688,814.0
301.1377,901.0
301.2066,810.0
301.2755,921.0
301.3444,830.0
301.4132,897.0
301.4821,798.0
301.551,911.0
301.6199,904.0
301.6887,905.0
301.7576,834.0
301.8265,909.0
301.8953,839.0
301.9642,884.0
302.033,832.0
302.1019,929.0
302.1707,820.0
302.2396,919.0
302.3084,846.0
302.3772,890.0
302.4461,860.0
302.5149,912.0
302.5837,797.0
302.6526,909.0
302.7214,813.0
302.7902,904.0
302.859,832.0
302.9278,920.0
302.9966,880.0
303.0654,918.0
303.1342,810.0
303.203,908.0
303.2718,846.0
303.3406,922.0
303.4094,813.0
303.4781,909.0
303.547,838.0
303.6158,881.0
303.6845,851.0
303.7533,908.0
303.8221,868.0
303.8908,957.0
303.9596,816.0
304.0284,949.0
304.0971,868.0
304.1659,954.0
304.2346,846.0
304.3034,918.0
304.3721,810.0
304.4409,894.0
304.5096,795.0
304.5784,905.0
304.6471,837.0
304.7158,927.0
304.7845,847.0
304.8533,919.0
304.922,782.0
304.9907,884.0
305.0594,823.0
305.1281,931.0
305.1969,833.0
305.2656,905.0
305.3343,822.0
305.403,885.0
305.4717,855.0
305.5403,930.0
305.609,838.0
305.6778,909.0
305.7464,800.0
305.8151,933.0
305.8838,815.0
305.9525,935.0
306.0211,830.0
306.0898,900.0
306.1585,788.0
306.2271,891.0
306.2958,821.0
306.3645,897.0
306.4331,814.0
306.5017,884.0
306.5704,851.0
306.6391,930.0
306.7077,818.0
306.7763,893.0
306.845,826.0
306.9136,907.0
306.9822,797.0
307.0508,931.0
307.1195,848.0
307.1881,881.0
307.2567,821.0
307.3253,924.0
307.3939,789.0
307.4625,944.0
307.5312,804.0
307.5998,892.0
307.6684,828.0
307.7369,914.0
307.8055,818.0
307.8741,926.0
307.9427,818.0
308.0113,894.0
308.0799,797.0
308.1484,867.0
308.217,789.0
308.2856,873.0
308.3542,791.0
308.4227,898.0
308.4913,759.0
308.5598,890.0
308.6284,780.0
308.6969,927.0
308.7655,853.0
308.834,895.0
308.9026,835.0
308.9711,890.0
309.0396,767.0
309.1082,898.0
309.1767,791.0
309.2452,909.0
309.3138,809.0
309.3823,901.0
309.4508,811.0
309.5193,879.0
309.5878,796.0
309.6563,922.0
309.7249,780.0
309.7933,903.0
309.8618,851.0
309.9303,912.0
309.9988,793.0
310.0673,914.0
310.1358,833.0
310.2043,883.0
310.2728,832.0
310.3412,904.0
310.4097,767.0
310.4781,880.0
310.5466,871.0
310.6151,886.0
310.6836,830.0
310.752,881.0
310.8205,776.0
310.8889,913.0
310.9574,825.0
311.0258,905.0
311.0943,778.0
311.1627,910.0
311.2311,752.0
311.2996,860.0
311.368,830.0
311.4364,851.0
311.5049,797.0
311.5733,878.0
311.6417,770.0
311.7101,893.0
311.7785,793.0
311.8469,890.0
311.9153,839.0
311.9837,903.0
312.0521,812.0
312.1205,894.0
312.1889,769.0
312.2573,861.0
312.3257,805.0
312.3941,844.0
312.4624,803.0
312.5308,818.0
312.5992,740.0
312.6675,868.0
312.7359,806.0
312.8043,849.0
312.8727,763.0
312.941,860.0
313.0093,826.0
313.0777,843.0
313.1461,794.0
313.2144,887.0
313.2827,800.0
313.3511,843.0
313.4194,733.0
313.4877,833.0
313.5561,781.0
313.6244,854.0
313.6927,781.0
313.761,862.0
313.8294,752.0
313.8977,798.0
313.966,753.0
314.0343,872.0
314.1026,763.0
314.1709,852.0
314.2392,787.0
314.3075,834.0
314.3758,780.0
314.4441,857.0
314.5124,764.0
314.5806,887.0
314.6489,741.0
314.7172,914.0
314.7855,784.0
314.8537,846.0
314.922,761.0
314.9903,890.0
315.0585,809.0
315.1268,880.0
315.195,771.0
315.2633,892.0
315.3315,841.0
315.3998,852.0
315.468,764.0
315.5362,863.0
315.6045,766.0
315.6727,890.0
315.7409,828.0
315.8092,882.0
315.8774,819.0
315.9456,873.0
316.0138,829.0
316.082,896.0
316.1502,783.0
316.2184,909.0
316.2867,844.0
316.3549,888.0
316.423,852.0
316.4912,973.0
316.5594,868.0
316.6276,906.0
316.6958,842.0
316.764,934.0
316.8322,830.0
316.9003,908.0
316.9685,787.0
317.0367,933.0
317.1049,857.0
317.173,957.0
317.2411,912.0
317.3093,899.0
317.3774,802.0
317.4456,882.0
317.5137,812.0
317.5819,896.0
317.65,841.0
317.7182,927.0
317.7863,847.0
317.8545,944.0
317.9225,830.0
317.9907,910.0
318.0588,823.0
318.1269,913.0
318.195,840.0
318.2631,893.0
318.3312,811.0
318.3994,885.0
318.4675,814.0
318.5355,892.0
318.6036,842.0
318.6717,921.0
318.7398,858.0
318.8079,885.0
318.876,812.0
318.9441,961.0
319.0121,836.0
319.0802,929.0
319.1483,864.0
319.2164,928.0
319.2844,824.0
319.3525,930.0
319.4205,838.0
319.4886,946.0
319.5566,844.0
319.6247,908.0
319.6927,853.0
319.7608,949.0
319.8288,857.0
319.8968,974.0
319.9648,820.0
320.0329,948.0
320.1009,820.0
320.1689,908.0
320.237,845.0
320.305,928.0
320.373,826.0
320.441,920.0
320.509,838.0
320.577,958.0
320.645,874.0
320.713,935.0
320.781,866.0
320.849,861.0
320.917,817.0
320.985,941.0
321.0529,857.0
321.1209,933.0
321.1889,832.0
321.2568,926.0
321.3248,874.0
321.3928,896.0
321.4608,842.0
321.5287,922.0
321.5966,793.0
321.6646,923.0
321.7325,866.0
321.8005,919.0
321.8684,821.0
321.9364,910.0
322.0043,841.0
322.0722,923.0
322.1401,813.0
322.2081,914.0
322.276,883.0
322.344,916.0
322.4119,829.0
322.4797,944.0
322.5477,851.0
322.6156,867.0
322.6835,834.0
322.7514,956.0
322.8193,812.0
322.8871,947.0
322.955,875.0
323.0229,943.0
323.0908,846.0
323.1588,930.0
323.2266,819.0
323.2945,953.0
323.3623,813.0
323.4302,951.0
323.4981,817.0
323.5659,909.0
323.6338,844.0
323.7016,920.0
323.7695,839.0
323.8373,886.0
323.9052,880.0
323.973,928.0
324.0409,860.0
324.1087,977.0
324.1765,873.0
324.2444,972.0
324.3122,796.0
324.38,978.0
324.4479,852.0
324.5157,976.0
324.5834,862.0
324.6512,926.0
324.7191,883.0
324.7869,916.0
324.8547,860.0
324.9225,935.0
324.9903,875.0
325.058,967.0
325.1259,864.0
325.1936,934.0
325.2614,789.0
325.3292,985.0
325.397,879.0
325.4647,936.0
325.5325,845.0
325.6002,886.0
325.668,898.0
325.7358,963.0
325.8036,858.0
325.8713,916.0
325.939,863.0
326.0068,907.0
326.0745,847.0
326.1422,889.0
326.21,820.0
326.2777,969.0
326.3455,833.0
326.4132,947.0
326.4809,860.0
326.5486,960.0
326.6164,860.0
326.6841,918.0
326.7518,885.0
326.8195,902.0
326.8872,882.0
326.9549,994.0
327.0226,831.0
327.0903,954.0
327.158,837.0
327.2256,937.0
327.2933,911.0
327.361,941.0
327.4287,847.0
327.4964,966.0
327.5641,876.0
327.6317,905.0
327.6994,852.0
327.767,1001.0
327.8347,843.0
327.9023,948.0
327.97,890.0
328.0376,962.0
328.1053,916.0
328.1729,921.0
328.2406,870.0
328.3082,925.0
328.3759,879.0
328.4435,920.0
328.5111,838.0
328.5787,907.0
328.6463,812.0
328.7139,913.0
328.7816,830.0
328.8492,943.0
328.9168,821.0
328.9843,926.0
329.052,822.0
329.1196,889.0
329.1872,825.0
329.2548,922.0
329.3224,857.0
329.3899,931.0
329.4575,832.0
329.5251,882.0
329.5927,839.0
329.6602,928.0
329.7278,855.0
329.7953,902.0
329.8629,837.0
329.9305,945.0
329.998,824.0
330.0656,895.0
330.1331,819.0
330.2007,904.0
330.2682,838.0
330.3358,884.0
330.4033,783.0
330.4708,895.0
330.5383,834.0
330.6059,915.0
330.6734,864.0
330.7409,899.0
330.8084,811.0
330.876,881.0
330.9435,845.0
331.011,876.0
331.0784,811.0
331.1459,911.0
331.2134,842.0
331.2809,890.0
331.3484,814.0
331.4159,861.0
331.4834,841.0
331.5508,877.0
331.6183,785.0
331.6858,911.0
331.7533,750.0
331.8207,916.0
331.8882,836.0
331.9557,906.0
332.0231,849.0
332.0906,891.0
332.1581,816.0
332.2255,898.0
332.2929,795.0
332.3604,918.0
332.4278,809.0
332.4952,904.0
332.5627,853.0
332.6301,921.0
332.6975,813.0
332.7649,906.0
332.8323,802.0
332.8997,932.0
332.9672,824.0
333.0346,912.0
333.102,863.0
333.1694,901.0
333.2368,848.0
333.3042,866.0
333.3716,812.0
333.439,923.0
333.5063,806.0
333.5737,924.0
333.6411,857.0
333.7085,888.0
333.7758,799.0
333.8432,929.0
333.9106,832.0
333.9779,936.0
334.0453,780.0
334.1126,919.0
334.18,838.0
334.2473,868.0
334.3147,872.0
334.382,906.0
334.4494,821.0
334.5167,949.0
334.584,836.0
334.6514,890.0
334.7187,807.0
334.786,946.0
334.8533,858.0
334.9206,892.0
334.9879,843.0
335.0553,907.0
335.1226,773.0
335.1899,913.0
335.2572,848.0
335.3245,855.0
335.3918,867.0
335.459,916.0
335.5263,850.0
335.5936,960.0
335.6609,841.0
335.7282,919.0
335.7954,848.0
335.8627,931.0
335.93,854.0
335.9973,926.0
336.0645,793.0
336.1318,908.0
336.199,813.0
336.2662,945.0
336.3335,835.0
336.4008,916.0
336.468,778.0
336.5352,918.0
336.6024,826.0
336.6697,921.0
336.7369,832.0
336.8041,921.0
336.8714,781.0
336.9386,879.0
337.0058,790.0
337.073,900.0
337.1402,842.0
337.2074,926.0
337.2746,855.0
337.3418,857.0
337.409,834.0
337.4762,853.0
337.5434,781.0
337.6106,897.0
337.6777,796.0
337.7449,903.0
337.8121,816.0
337.8792,810.0
337.9464,828.0
338.0135,866.0
338.0807,797.0
338.1479,880.0
338.2151,761.0
338.2822,884.0
338.3493,843.0
338.4165,880.0
338.4836,812.0
338.5508,906.0
338.6179,762.0
338.6851,899.0
338.7521,804.0
338.8193,904.0
338.8864,803.0
338.9535,905.0
339.0206,863.0
339.0878,852.0
339.1548,830.0
339.222,945.0
339.289,822.0
339.3561,921.0
339.4233,792.0
339.4904,913.0
339.5574,808.0
339.6245,891.0
339.6916,804.0
339.7587,898.0
339.8257,804.0
339.8929,882.0
339.9599,811.0
340.0269,890.0
340.094,781.0
340.1611,900.0
340.2281,801.0
340.2952,925.0
340.3622,787.0
340.4293,842.0
340.4963,812.0
340.5633,892.0
340.6304,820.0
340.6974,845.0
340.7645,805.0
340.8315,880.0
340.8985,778.0
340.9655,868.0
341.0325,790.0
341.0995,904.0
341.1665,810.0
341.2335,889.0
341.3005,812.0
341.3675,881.0
341.4345,754.0
341.5015,877.0
341.5685,784.0
341.6355,876.0
341.7025,812.0
341.7694,867.0
341.8364,804.0
341.9034,908.0
341.9704,810.0
342.0373,892.0
342.1043,757.0
342.1712,878.0
342.2382,790.0
342.3051,907.0
342.3721,780.0
342.4391,878.0
342.506,805.0
342.5729,881.0
342.6398,785.0
342.7068,876.0
342.7737,783.0
342.8406,876.0
342.9076,792.0
342.9745,874.0
343.0414,822.0
343.1083,877.0
343.1752,798.0
343.2421,860.0
343.309,763.0
343.3759,879.0
343.4428,830.0
343.5097,939.0
343.5766,838.0
343.6434,835.0
343.7104,801.0
343.7772,885.0
343.8441,805.0
343.9109,879.0
343.9778,829.0
344.0447,878.0
344.1116,864.0
344.1784,898.0
344.2453,821.0
344.3121,930.0
344.3789,799.0
344.4458,938.0
344.5127,785.0
344.5795,914.0
344.6463,795.0
344.7131,909.0
344.78,797.0
344.8468,882.0
344.9136,789.0
344.9805,915.0
345.0473,830.0
345.1141,914.0
345.1809,817.0
345.2477,972.0
345.3145,829.0
345.3813,937.0
345.4481,835.0
345.5149,932.0
345.5816,808.0
345.6484,916.0
345.7152,848.0
345.782,917.0
345.8488,834.0
345.9155,916.0
345.9823,828.0
346.049,878.0
346.1158,818.0
346.1826,899.0
346.2493,872.0
346.3161,914.0
346.3828,831.0
346.4496,933.0
346.5163,819.0
346.5831,876.0
346.6498,809.0
346.7165,913.0
346.7832,832.0
346.85,899.0
346.9167,812.0
346.9834,882.0
347.0501,762.0
347.1168,900.0
347.1835,875.0
347.2502,926.0
347.3169,821.0
347.3836,927.0
347.4503,814.0
347.517,879.0
347.5837,833.0
347.6504,892.0
347.717,821.0
347.7837,935.0
347.8504,859.0
347.9171,878.0
347.9837,834.0
348.0504,952.0
348.1171,811.0
348.1837,857.0
348.2504,871.0
348.317,905.0
348.3837,814.0
348.4503,937.0
348.5169,794.0
348.5836,959.0
348.6502,826.0
348.7169,903.0
348.7835,858.0
348.8501,915.0
348.9167,855.0
348.9833,925.0
349.0499,869.0
349.1165,901.0
349.1832,857.0
349.2498,977.0
349.3163,860.0
349.3829,904.0
349.4495,806.0
349.5161,900.0
349.5827,814.0
349.6493,940.0
349.7159,800.0
349.7824,929.0
349.849,844.0
349.9156,925.0
349.9821,868.0
350.0487,918.0
350.1153,868.0
350.1818,918.0
350.2484,822.0
350.3149,930.0
350.3814,843.0
350.448,884.0
350.5146,793.0
350.5811,933.0
350.6476,879.0
350.7141,939.0
350.7807,862.0
350.8472,962.0
350.9137,828.0
350.9802,935.0
351.0467,873.0
351.1132,901.0
351.1797,871.0
351.2462,880.0
351.3127,855.0
351.3792,926.0
351.4457,778.0
351.5122,913.0
351.5787,878.0
351.6451,945.0
351.7116,851.0
351.7781,973.0
351.8446,862.0
351.911,917.0
351.9775,872.0
352.044,981.0
352.1104,856.0
352.1769,961.0
352.2433,868.0
352.3098,970.0
352.3762,892.0
352.4427,958.0
352.5091,828.0
352.5755,986.0
352.642,863.0
352.7084,1006.0
352.7748,901.0
352.8412,942.0
352.9077,869.0
352.9741,989.0
353.0405,883.0
353.1068,980.0
353.1732,877.0
353.2396,1036.0
353.306,912.0
353.3724,969.0
353.4388,902.0
353.5052,984.0
353.5716,918.0
353.638,1014.0
353.7043,918.0
353.7707,977.0
353.8371,890.0
353.9034,1013.0
353.9698,933.0
354.0362,973.0
354.1025,966.0
354.1689,1049.0
354.2352,940.0
354.3016,1030.0
354.3679,980.0
354.4342,1035.0
354.5005,918.0
354.5669,1042.0
354.6332,971.0
354.6996,1032.0
354.7659,963.0
354.8322,1023.0
354.8985,957.0
354.9648,1007.0
355.0311,948.0
355.0974,1055.0
355.1637,953.0
355.23,1044.0
355.2963,943.0
355.3625,1024.0
355.4289,939.0
355.4952,1080.0
355.5614,888.0
355.6277,1043.0
355.694,970.0
355.7603,1019.0
355.8265,930.0
355.8928,976.0
355.959,923.0
356.0253,1037.0
356.0916,943.0
356.1578,1041.0
356.224,914.0
356.2903,1035.0
356.3565,946.0
356.4228,1043.0
356.489,908.0
356.5552,997.0
356.6214,937.0
356.6876,967.0
356.7539,927.0
356.8201,1042.0
356.8863,896.0
356.9525,992.0
357.0187,899.0
357.0849,959.0
357.1511,889.0
357.2173,948.0
357.2835,894.0
357.3497,993.0
357.4158,927.0
357.482,1020.0
357.5482,960.0
357.6144,1013.0
357.6805,968.0
357.7467,1031.0
357.8128,988.0
357.879,1086.0
357.9452,1032.0
358.0114,1172.0
358.0775,1133.0
358.1436,1284.0
358.2097,1177.0
358.2759,1380.0
358.342,1308.0
358.4082,1392.0
358.4743,1306.0
358.5404,1396.0
358.6065,1174.0
358.6726,1092.0
358.7387,1046.0
358.8049,1143.0
358.871,1108.0
358.9371,1165.0
359.0032,1010.0
359.0693,1069.0
359.1353,919.0
359.2014,928.0
359.2676,894.0
359.3336,941.0
359.3997,816.0
359.4658,947.0
359.5318,844.0
359.5979,899.0
359.664,806.0
359.7301,898.0
359.7961,863.0
359.8622,886.0
359.9282,805.0
359.9943,939.0
360.0603,837.0
360.1264,905.0
360.1924,821.0
360.2585,910.0
360.3244,803.0
360.3905,884.0
360.4565,830.0
360.5225,914.0
360.5885,865.0
360.6546,925.0
360.7206,808.0
360.7866,929.0
360.8526,859.0
360.9185,866.0
360.9846,834.0
361.0506,880.0
361.1165,802.0
361.1825,901.0
361.2485,815.0
361.3145,899.0
361.3805,828.0
361.4465,855.0
361.5124,792.0
361.5784,875.0
361.6443,809.0
361.7103,904.0
361.7762,825.0
361.8422,958.0
361.9082,807.0
361.9741,902.0
362.04,834.0
362.106,896.0
362.1719,845.0
362.2379,931.0
362.3038,809.0
362.3697,917.0
362.4356,820.0
362.5015,928.0
362.5675,875.0
362.6334,900.0
362.6993,824.0
362.7652,926.0
362.8311,806.0
362.8969,939.0
362.9629,828.0
363.0287,948.0
363.0947,825.0
363.1605,959.0
363.2264,833.0
363.2923,912.0
363.3582,848.0
363.424,912.0
363.4899,823.0
363.5557,888.0
363.6216,808.0
363.6874,914.0
363.7533,846.0
363.8191,911.0
363.885,796.0
363.9508,890.0
364.0167,757.0
364.0825,907.0
364.1483,843.0
364.2142,930.0
364.28,761.0
364.3458,928.0
364.4116,821.0
364.4774,873.0
364.5432,841.0
364.609,852.0
364.6748,814.0
364.7406,942.0
364.8065,820.0
364.8722,942.0
364.938,840.0
365.0038,915.0
365.0696,811.0
365.1354,902.0
365.2011,801.0
365.2669,912.0
365.3326,817.0
365.3984,867.0
365.4642,809.0
365.5299,892.0
365.5957,790.0
365.6614,876.0
365.7272,829.0
365.7929,908.0
365.8587,784.0
365.9244,923.0
365.9902,842.0
366.0559,922.0
366.1216,860.0
366.1873,912.0
366.253,819.0
366.3188,911.0
366.3845,789.0
366.4502,916.0
366.5159,830.0
366.5816,905.0
366.6473,833.0
366.713,840.0
366.7787,800.0
366.8444,929.0
366.91,778.0
366.9757,942.0
367.0414,802.0
367.1071,902.0
367.1727,798.0
367.2384,829.0
367.3041,799.0
367.3697,869.0
367.4354,797.0
367.501,897.0
367.5667,796.0
367.6323,857.0
367.698,818.0
367.7636,880.0
367.8292,810.0
367.8948,916.0
367.9605,782.0
368.0261,831.0
368.0918,778.0
368.1573,925.0
368.223,778.0
368.2885,923.0
368.3542,777.0
368.4198,849.0
368.4854,776.0
368.551,863.0
368.6165,755.0
368.6821,884.0
368.7477,786.0
368.8133,868.0
368.8789,787.0
368.9445,889.0
369.01,782.0
369.0756,891.0
369.1411,848.0
369.2067,867.0
369.2723,780.0
369.3379,865.0
369.4034,793.0
369.4689,818.0
369.5345,793.0
369.6,860.0
369.6656,730.0
369.7311,838.0
369.7966,739.0
369.8622,892.0
369.9277,804.0
369.9932,865.0
370.0587,737.0
370.1242,807.0
370.1897,770.0
370.2552,880.0
370.3207,744.0
370.3862,856.0
370.4517,805.0
370.5172,903.0
370.5827,842.0
370.6482,870.0
370.7136,808.0
370.7791,862.0
370.8446,833.0
370.9101,845.0
370.9756,771.0
371.041,906.0
371.1064,811.0
371.1719,884.0
371.2373,800.0
371.3028,913.0
371.3683,853.0
371.4337,865.0
371.4991,814.0
371.5646,876.0
371.63,824.0
371.6954,886.0
371.7608,800.0
371.8263,877.0
371.8917,798.0
371.9571,860.0
372.0225,757.0
372.0879,876.0
372.1533,804.0
372.2187,907.0
372.2841,784.0
372.3495,898.0
372.4149,842.0
372.4803,892.0
372.5457,825.0
372.611,912.0
372.6764,777.0
372.7418,889.0
372.8071,842.0
372.8725,910.0
372.9379,836.0
373.0032,930.0
373.0686,846.0
373.1339,907.0
373.1992,791.0
373.2646,950.0
373.3299,831.0
373.3953,883.0
373.4606,835.0
373.5259,929.0
373.5912,799.0
373.6566,865.0
373.7219,823.0
373.7872,905.0
373.8525,838.0
373.9178,911.0
373.9831,848.0
374.0484,905.0
374.1137,834.0
374.179,915.0
374.2443,813.0
374.3096,956.0
374.3749,834.0
374.4401,915.0
374.5054,835.0
374.5706,932.0
374.636,850.0
374.7012,915.0
374.7665,867.0
374.8318,927.0
374.897,850.0
374.9622,897.0
375.0275,775.0
375.0927,901.0
375.158,869.0
375.2232,885.0
375.2885,860.0
375.3537,919.0
375.4189,858.0
375.4841,896.0
375.5493,846.0
375.6145,964.0
375.6797,883.0
375.745,993.0
375.8101,842.0
375.8754,917.0
375.9406,892.0
376.0057,969.0
376.071,822.0
376.1361,967.0
376.2013,848.0
376.2665,930.0
376.3317,838.0
376.3969,937.0
376.462,871.0
376.5272,1016.0
376.5923,875.0
376.6575,977.0
376.7226,906.0
376.7878,973.0
376.8529,876.0
376.9181,979.0
376.9832,902.0
377.0483,949.0
377.1135,872.0
377.1786,972.0
377.2437,905.0
377.3089,961.0
377.374,914.0
377.4391,1012.0
377.5042,916.0
377.5693,956.0
377.6344,918.0
377.6995,963.0
377.7646,890.0
377.8297,1002.0
377.8948,1002.0
377.9599,1001.0
378.025,897.0
378.09,1013.0
378.1551,937.0
378.2202,977.0
378.2852,922.0
378.3503,1022.0
378.4154,936.0
378.4804,1062.0
378.5455,944.0
378.6105,1037.0
378.6755,927.0
378.7406,990.0
378.8057,997.0
378.8707,1094.0
378.9357,962.0
379.0008,1105.0
379.0658,965.0
379.1308,1064.0
379.1958,1029.0
379.2609,1047.0
379.3259,962.0
379.3908,1120.0
379.4558,996.0
379.5208,1080.0
379.5858,1031.0
379.6509,1083.0
379.7159,1032.0
379.7808,1132.0
379.8458,1046.0
379.9108,1143.0
379.9758,1065.0
380.0407,1162.0
380.1057,1058.0
380.1707,1165.0
380.2356,1095.0
380.3006,1166.0
380.3655,1115.0
380.4305,1171.0
380.4955,1068.0
380.5604,1221.0
380.6253,1099.0
380.6902,1225.0
380.7552,1161.0
380.8201,1258.0
380.885,1216.0
380.95,1181.0
381.0149,1180.0
381.0798,1252.0
381.1447,1135.0
381.2096,1288.0
381.2745,1238.0
381.3394,1272.0
381.4043,1218.0
381.4692,1295.0
381.5341,1302.0
381.5989,1307.0
381.6638,1258.0
381.7287,1327.0
381.7936,1241.0
381.8585,1423.0
381.9233,1325.0
381.9882,1373.0
382.053,1383.0
382.1179,1410.0
382.1828,1311.0
382.2476,1434.0
382.3124,1278.0
382.3773,1411.0
382.4421,1425.0
382.507,1443.0
382.5718,1301.0
382.6366,1439.0
382.7014,1341.0
382.7663,1480.0
382.8311,1357.0
382.8959,1490.0
382.9607,1377.0
383.0255,1394.0
383.0903,1398.0
383.1551,1582.0
383.2199,1397.0
383.2847,1478.0
383.3495,1413.0
383.4143,1487.0
383.479,1451.0
383.5438,1440.0
383.6086,1389.0
383.6734,1498.0
383.7381,1443.0
383.8029,1583.0
383.8676,1404.0
383.9324,1550.0
383.9972,1473.0
384.0619,1601.0
384.1266,1461.0
384.1914,1558.0
384.2562,1429.0
384.3209,1596.0
384.3856,1478.0
384.4503,1700.0
384.515,1587.0
384.5797,1764.0
384.6445,1684.0
384.7092,1807.0
384.7739,1696.0
384.8386,1941.0
384.9033,1942.0
384.968,2146.0
385.0327,2013.0
385.0974,1954.0
385.162,1864.0
385.2267,1937.0
385.2914,1921.0
385.3561,2054.0
385.4208,1949.0
385.4854,1802.0
385.5501,1720.0
385.6147,1876.0
385.6794,1807.0
385.7441,1934.0
385.8087,1943.0
385.8734,2062.0
385.938,2004.0
386.0027,2141.0
386.0673,2259.0
386.1319,2051.0
386.1966,1767.0
386.2612,1682.0
386.3258,1562.0
386.3904,1689.0
386.455,1647.0
386.5196,1763.0
386.5843,1841.0
386.6489,2039.0
386.7135,2048.0
386.778,2297.0
386.8426,2271.0
386.9072,2520.0
386.9718,2617.0
387.0364,2794.0
387.101,2214.0
387.1655,1749.0
387.2301,1464.0
387.2946,1474.0
387.3593,1337.0
387.4238,1509.0
387.4884,1450.0
387.5529,1604.0
387.6175,1653.0
387.682,1778.0
387.7466,1862.0
387.8111,2057.0
387.8756,2138.0
387.9402,2402.0
388.0047,2619.0
388.0692,2931.0
388.1337,2988.0
388.1982,3307.0
388.2628,2859.0
388.3272,2003.0
388.3918,1379.0
388.4563,1194.0
388.5208,929.0
388.5852,999.0
388.6497,857.0
388.7142,919.0
388.7787,859.0
388.8432,902.0
388.9077,807.0
388.9721,910.0
389.0366,803.0
389.1011,915.0
389.1655,805.0
389.23,915.0
389.2944,839.0
389.3589,935.0
389.4233,833.0
389.4878,882.0
389.5522,829.0
389.6167,907.0
389.6811,839.0
389.7455,912.0
389.8099,847.0
389.8744,946.0
389.9388,833.0
390.0032,959.0
390.0676,836.0
390.132,909.0
390.1964,807.0
390.2608,912.0
390.3252,843.0
390.3896,898.0
390.454,834.0
390.5184,907.0
390.5827,844.0
390.6471,879.0
390.7115,827.0
390.7759,953.0
390.8402,857.0
390.9046,906.0
390.9689,873.0
391.0333,917.0
391.0977,866.0
391.162,950.0
391.2264,823.0
391.2907,930.0
391.355,914.0
391.4193,915.0
391.4837,829.0
391.548,951.0
391.6123,859.0
391.6767,927.0
391.741,853.0
391.8053,982.0
391.8696,837.0
391.9339,943.0
391.9982,841.0
392.0625,962.0
392.1268,859.0
392.1911,950.0
392.2553,829.0
392.3196,926.0
392.3839,875.0
392.4482,911.0
392.5125,823.0
392.5767,960.0
392.641,909.0
392.7053,903.0
392.7695,871.0
392.8338,975.0
392.898,884.0
392.9622,942.0
393.0265,915.0
393.0908,953.0
393.155,925.0
393.2192,1014.0
393.2834,937.0
393.3477,993.0
393.4118,868.0
393.476,960.0
393.5403,847.0
393.6045,960.0
393.6687,884.0
393.7329,930.0
393.7971,798.0
393.8613,941.0
393.9255,850.0
393.9897,908.0
394.0539,873.0
394.118,959.0
394.1822,856.0
394.2464,957.0
394.3105,836.0
394.3747,918.0
394.4389,851.0
394.503,922.0
394.5672,820.0
394.6313,978.0
394.6954,895.0
394.7596,903.0
394.8238,857.0
394.8879,926.0
394.952,885.0
395.0161,859.0
395.0803,831.0
395.1444,906.0
395.2085,805.0
395.2726,874.0
395.3367,907.0
395.4008,853.0
395.4649,791.0
395.529,890.0
395.5931,863.0
395.6572,883.0
395.7213,820.0
395.7854,909.0
395.8495,845.0
395.9135,885.0
395.9776,805.0
396.0417,902.0
396.1057,846.0
396.1698,844.0
396.2339,808.0
396.2979,918.0
396.362,825.0
396.426,877.0
396.4901,838.0
396.5541,940.0
396.6181,893.0
396.6821,930.0
396.7462,858.0
396.8102,943.0
396.8743,850.0
396.9383,874.0
397.0023,829.0
397.0662,919.0
397.1302,829.0
397.1943,877.0
397.2583,829.0
397.3223,906.0
397.3862,831.0
397.4502,884.0
397.5142,788.0
397.5782,862.0
397.6422,837.0
397.7061,859.0
397.7701,826.0
397.8341,898.0
397.898,783.0
397.962,950.0
398.0259,831.0
398.0899,867.0
398.1538,809.0
398.2178,889.0
398.2817,839.0
398.3456,887.0
398.4096,761.0
398.4735,874.0
398.5374,820.0
398.6013,907.0
398.6653,789.0
398.7292,868.0
398.7931,833.0
398.857,942.0
398.9209,809.0
398.9848,862.0
399.0487,806.0
399.1125,940.0
399.1765,847.0
399.2404,896.0
399.3042,815.0
399.3681,911.0
399.432,826.0
399.4958,907.0
399.5597,824.0
399.6236,905.0
399.6875,847.0
399.7513,889.0
399.8152,867.0
399.879,942.0
399.9428,836.0
400.0067,917.0
400.0705,820.0
400.1343,915.0
400.1982,857.0
400.262,932.0
400.3258,834.0
400.3896,876.0
400.4534,831.0
400.5172,906.0
400.581,786.0
400.6448,941.0
400.7086,824.0
400.7724,943.0
400.8362,845.0
400.9,911.0
400.9638,828.0
401.0276,948.0
401.0913,887.0
401.1551,958.0
401.2189,857.0
401.2826,966.0
401.3464,846.0
401.4102,909.0
401.4739,821.0
401.5376,928.0
401.6014,855.0
401.6651,915.0
401.7289,826.0
401.7926,890.0
401.8564,832.0
401.92,911.0
401.9838,885.0
402.0475,929.0
402.1112,869.0
402.175,946.0
402.2386,815.0
402.3023,916.0
402.366,856.0
402.4297,978.0
402.4934,867.0
402.5571,917.0
402.6208,870.0
402.6845,926.0
402.7482,867.0
402.8118,943.0
402.8755,840.0
402.9392,989.0
403.0028,865.0
403.0665,945.0
403.1301,889.0
403.1938,922.0
403.2574,884.0
403.3211,974.0
403.3847,848.0
403.4484,958.0
403.512,821.0
403.5756,944.0
403.6393,861.0
403.7029,962.0
403.7665,873.0
403.8301,970.0
403.8937,836.0
403.9573,958.0
404.0209,839.0
404.0845,970.0
404.1481,777.0
404.2117,962.0
404.2753,861.0
404.3389,941.0
404.4024,861.0
404.466,930.0
404.5296,855.0
404.5932,968.0
404.6567,858.0
404.7203,948.0
404.7838,849.0
404.8474,969.0
404.9109,856.0
404.9745,931.0
405.0381,844.0
405.1016,948.0
405.1651,862.0
405.2286,932.0
405.2922,877.0
405.3557,908.0
405.4193,858.0
405.4828,929.0
405.5462,824.0
405.6097,926.0
405.6733,808.0
405.7368,963.0
405.8003,876.0
405.8638,908.0
405.9272,869.0
405.9907,902.0
406.0542,847.0
406.1177,964.0
406.1812,878.0
406.2446,940.0
406.3081,875.0
406.3716,957.0
406.435,898.0
406.4985,931.0
406.562,870.0
406.6254,987.0
406.6888,894.0
406.7523,925.0
406.8157,837.0
406.8791,907.0
406.9426,839.0
407.006,927.0
407.0694,866.0
407.1328,1008.0
407.1962,849.0
407.2597,947.0
407.3231,917.0
407.3865,977.0
407.4499,904.0
407.5133,986.0
407.5767,931.0
407.64,940.0
407.7034,884.0
407.7668,940.0
407.8302,893.0
407.8936,1003.0
407.9569,928.0
408.0203,974.0
408.0836,934.0
408.147,1020.0
408.2104,877.0
408.2737,1014.0
408.3371,913.0
408.4004,1005.0
408.4637,922.0
408.5271,1012.0
408.5905,913.0
408.6537,986.0
408.7171,938.0
408.7804,975.0
408.8437,904.0
408.907,984.0
408.9703,917.0
409.0336,1003.0
409.0969,913.0
409.1602,1016.0
409.2235,934.0
409.2868,932.0
409.3501,915.0
409.4134,996.0
409.4767,894.0
409.5399,1003.0
409.6032,904.0
409.6665,991.0
409.7297,922.0
409.793,983.0
409.8563,955.0
409.9195,982.0
409.9827,919.0
410.046,983.0
410.1092,941.0
410.1725,1029.0
410.2357,917.0
410.299,961.0
410.3622,893.0
410.4254,968.0
410.4886,914.0
410.5518,958.0
410.615,894.0
410.6782,1018.0
410.7414,936.0
410.8046,1049.0
410.8678,865.0
410.931,979.0
410.9942,931.0
411.0574,966.0
411.1205,866.0
411.1837,960.0
411.2469,899.0
411.3101,951.0
411.3733,879.0
411.4364,1043.0
411.4995,884.0
411.5627,977.0
411.6259,873.0
411.689,959.0
411.7521,939.0
411.8153,942.0
411.8784,936.0
411.9415,988.0
412.0046,897.0
412.0678,935.0
412.1309,861.0
412.194,968.0
412.2571,856.0
412.3203,960.0
412.3833,885.0
412.4464,964.0
412.5096,906.0
412.5727,952.0
412.6357,894.0
412.6988,990.0
412.7619,916.0
412.825,971.0
412.8881,872.0
412.9511,973.0
413.0142,897.0
413.0772,956.0
413.1403,893.0
413.2033,956.0
413.2664,916.0
413.3294,972.0
413.3925,908.0
413.4555,992.0
413.5186,870.0
413.5816,966.0
413.6446,940.0
413.7076,974.0
413.7707,862.0
413.8337,991.0
413.8967,865.0
413.9597,970.0
414.0227,901.0
414.0857,987.0
414.1487,911.0
414.2117,978.0
414.2747,893.0
414.3376,998.0
414.4006,913.0
414.4636,971.0
414.5266,915.0
414.5896,1054.0
414.6525,947.0
414.7155,1066.0
414.7784,967.0
414.8414,1003.0
414.9044,977.0
414.9673,1097.0
415.0303,1023.0
415.0932,1103.0
415.1561,1011.0
415.2191,1024.0
415.282,956.0
415.3449,1115.0
415.4079,929.0
415.4708,1045.0
415.5336,1006.0
415.5966,1076.0
415.6595,977.0
415.7224,1102.0
415.7853,964.0
415.8482,1025.0
415.9111,934.0
415.9739,1004.0
416.0368,943.0
416.0997,1030.0
416.1626,942.0
416.2255,1055.0
416.2883,1004.0
416.3512,1057.0
416.414,971.0
416.4769,1053.0
416.5397,1005.0
416.6026,1080.0
416.6654,988.0
416.7283,1107.0
416.7911,1006.0
416.8539,1030.0
416.9167,938.0
416.9796,1026.0
417.0424,939.0
417.1052,1003.0
417.168,943.0
417.2308,987.0
417.2936,947.0
417.3564,1031.0
417.4193,937.0
417.4821,979.0
417.5448,925.0
417.6076,1075.0
417.6704,997.0
417.7332,1128.0
417.796,1015.0
417.8587,1086.0
417.9215,1107.0
417.9842,1124.0
418.047,1026.0
418.1098,1017.0
418.1725,965.0
418.2353,1005.0
418.298,874.0
418.3607,979.0
418.4235,874.0
418.4862,1018.0
418.549,890.0
418.6117,1003.0
418.6744,911.0
418.7371,979.0
418.7998,913.0
418.8625,1007.0
418.9252,885.0
418.9879,957.0
419.0507,873.0
419.1133,994.0
419.176,923.0
419.2387,1028.0
419.3014,948.0
419.3641,1032.0
419.4268,1079.0
419.4894,1141.0
419.5521,1130.0
419.6147,1172.0
419.6774,1032.0
419.7401,1005.0
419.8027,904.0
419.8654,943.0
419.928,882.0
419.9906,962.0
420.0533,870.0
420.1159,930.0
420.1785,873.0
420.2411,955.0
420.3038,865.0
420.3664,931.0
420.429,845.0
420.4916,928.0
420.5542,857.0
420.6168,938.0
420.6794,877.0
420.742,892.0
420.8046,888.0
420.8672,958.0
420.9297,893.0
420.9923,1000.0
421.0549,874.0
421.1175,972.0
421.18,915.0
421.2426,992.0
421.3052,964.0
421.3677,1073.0
421.4303,994.0
421.4928,1119.0
421.5554,944.0
421.6179,970.0
421.6804,836.0
421.743,837.0
421.8055,801.0
421.868,914.0
421.9305,769.0
421.993,812.0
422.0556,802.0
422.1181,858.0
422.1806,765.0
422.2431,892.0
422.3055,798.0
422.368,851.0
422.4305,803.0
422.493,882.0
422.5555,768.0
422.618,853.0
422.6805,851.0
422.7429,893.0
422.8054,785.0
422.8679,860.0
422.9303,798.0
422.9928,875.0
423.0552,800.0
423.1177,926.0
423.1801,796.0
423.2425,901.0
423.305,823.0
423.3674,894.0
423.4298,843.0
423.4922,920.0
423.5547,810.0
423.617,869.0
423.6795,803.0
423.7419,905.0
423.8043,852.0
423.8667,911.0
423.9291,848.0
423.9915,937.0
424.0538,830.0
424.1163,862.0
424.1786,831.0
424.241,888.0
424.3034,848.0
424.3658,885.0
424.4281,859.0
424.4905,899.0
424.5529,824.0
424.6152,946.0
424.6775,846.0
424.7399,977.0
424.8022,869.0
424.8646,884.0
424.9269,871.0
424.9892,901.0
425.0515,904.0
425.1139,940.0
425.1762,822.0
425.2385,975.0
425.3008,882.0
425.3631,926.0
425.4254,886.0
425.4877,973.0
425.55,869.0
425.6123,965.0
425.6746,873.0
425.7369,917.0
425.7992,880.0
425.8614,956.0
425.9237,890.0
425.9859,946.0
426.0482,894.0
426.1105,966.0
426.1727,880.0
426.235,905.0
426.2972,877.0
426.3595,939.0
426.4217,867.0
426.4839,1020.0
426.5462,924.0
426.6084,964.0
426.6706,917.0
426.7328,975.0
426.795,914.0
426.8573,984.0
426.9195,888.0
426.9817,956.0
427.0439,871.0
427.1061,939.0
427.1683,878.0
427.2305,930.0
427.2927,876.0
427.3549,949.0
427.417,865.0
427.4792,947.0
427.5413,877.0
427.6035,936.0
427.6657,900.0
427.7278,964.0
427.79,881.0
427.8521,946.0
427.9142,876.0
427.9764,940.0
428.0386,838.0
428.1007,936.0
428.1628,893.0
428.2249,946.0
428.287,848.0
428.3492,913.0
428.4113,832.0
428.4734,968.0
428.5355,893.0
428.5976,930.0
428.6597,840.0
428.7218,924.0
428.7839,828.0
428.846,908.0
428.9081,879.0
428.9702,918.0
429.0322,808.0
429.0943,930.0
429.1563,866.0
429.2184,913.0
429.2805,803.0
429.3425,926.0
429.4046,867.0
429.4666,919.0
429.5287,810.0
429.5908,903.0
429.6528,803.0
429.7148,935.0
429.7768,793.0
429.8388,859.0
429.9008,783.0
429.9629,869.0
430.0249,807.0
430.0869,910.0
430.1489,833.0
430.2109,915.0
430.2729,824.0
430.3349,889.0
430.3969,807.0
430.4589,874.0
430.5208,839.0
430.5828,886.0
430.6448,754.0
430.7068,899.0
430.7688,793.0
430.8307,875.0
430.8926,843.0
430.9546,907.0
431.0165,799.0
431.0785,850.0
431.1404,837.0
431.2024,875.0
431.2643,831.0
431.3262,899.0
431.3881,819.0
431.4501,846.0
431.512,795.0
431.5739,879.0
431.6358,809.0
431.6977,883.0
431.7596,759.0
431.8215,865.0
431.8834,821.0
431.9453,870.0
432.0072,799.0
432.0691,863.0
432.131,760.0
432.1928,870.0
432.2547,783.0
432.3165,849.0
432.3784,767.0
432.4403,870.0
432.5021,761.0
432.564,847.0
432.6258,782.0
432.6876,873.0
432.7495,783.0
432.8113,838.0
432.8732,739.0
432.935,851.0
432.9968,752.0
433.0586,867.0
433.1204,755.0
433.1823,831.0
433.2441,777.0
433.3059,830.0
433.3677,797.0
433.4295,841.0
433.4912,789.0
433.5531,878.0
433.6148,783.0
433.6766,850.0
433.7384,750.0
433.8001,850.0
433.8619,759.0
433.9237,899.0
433.9854,783.0
434.0472,839.0
434.1089,791.0
434.1707,851.0
434.2324,817.0
434.2942,939.0
434.3559,801.0
434.4177,959.0
434.4794,807.0
434.5411,892.0
434.6028,757.0
434.6645,850.0
434.7263,793.0
434.788,891.0
434.8497,832.0
434.9113,876.0
434.973,813.0
435.0347,880.0
435.0965,731.0
435.1581,866.0
435.2198,798.0
435.2815,894.0
435.3431,818.0
435.4048,847.0
435.4665,831.0
435.5282,895.0
435.5898,833.0
435.6515,859.0
435.7131,821.0
435.7747,933.0
435.8363,819.0
435.898,906.0
435.9597,809.0
436.0213,882.0
436.0829,786.0
436.1445,981.0
436.2061,841.0
436.2678,910.0
436.3294,841.0
436.391,983.0
436.4525,916.0
436.5141,892.0
436.5757,837.0
436.6373,918.0
436.6989,799.0
436.7605,918.0
436.8221,834.0
436.8836,910.0
436.9452,857.0
437.0067,883.0
437.0684,853.0
437.1299,899.0
437.1914,823.0
437.253,896.0
437.3145,839.0
437.3761,958.0
437.4376,771.0
437.4992,863.0
437.5607,756.0
437.6222,895.0
437.6837,767.0
437.7452,853.0
437.8067,817.0
437.8683,870.0
437.9298,865.0
437.9913,889.0
438.0528,800.0
438.1143,892.0
438.1757,775.0
438.2372,894.0
438.2987,804.0
438.3602,894.0
438.4217,788.0
438.4831,849.0
438.5446,759.0
438.6061,870.0
438.6675,799.0
438.729,862.0
438.7904,780.0
438.8519,911.0
438.9133,801.0
438.9747,859.0
439.0362,787.0
439.0976,826.0
439.159,773.0
439.2204,858.0
439.2819,747.0
439.3433,875.0
439.4047,781.0
439.4661,858.0
439.5275,777.0
439.5889,869.0
439.6503,747.0
439.7116,830.0
439.7731,769.0
439.8345,882.0
439.8958,794.0
439.9572,897.0
440.0186,789.0
440.0799,870.0
440.1413,793.0
440.2027,879.0
440.264,732.0
440.3253,888.0
440.3867,767.0
440.448,908.0
440.5093,785.0
440.5707,874.0
440.632,770.0
440.6934,837.0
440.7546,764.0
440.816,890.0
440.8773,741.0
440.9386,879.0
440.9999,842.0
441.0612,908.0
441.1225,791.0
441.1838,838.0
441.2451,791.0
441.3063,859.0
441.3677,812.0
441.429,887.0
441.4902,751.0
441.5515,885.0
441.6127,825.0
441.674,858.0
441.7353,787.0
441.7965,863.0
441.8578,754.0
441.919,862.0
441.9802,805.0
442.0414,911.0
442.1027,781.0
442.164,871.0
442.2252,787.0
442.2864,872.0
442.3476,787.0
442.4088,894.0
442.47,823.0
442.5312,887.0
442.5924,796.0
442.6536,875.0
442.7148,825.0
442.776,867.0
442.8372,791.0
442.8984,830.0
442.9596,773.0
443.0207,902.0
443.0819,745.0
443.143,845.0
443.2042,799.0
443.2653,870.0
443.3265,805.0
443.3877,850.0
443.4488,768.0
443.5099,845.0
443.5711,779.0
443.6322,850.0
443.6934,759.0
443.7545,890.0
443.8156,792.0
443.8767,855.0
443.9378,801.0
443.9989,883.0
444.0601,841.0
444.1212,884.0
444.1822,819.0
444.2433,884.0
444.3044,865.0
444.3654,886.0
444.4265,736.0
444.4877,871.0
444.5487,790.0
444.6098,912.0
444.6708,855.0
444.7319,886.0
444.7929,817.0
444.854,887.0
444.915,814.0
444.9761,853.0
445.0371,757.0
445.0981,846.0
445.1592,785.0
445.2203,859.0
445.2812,784.0
445.3423,888.0
445.4033,773.0
445.4643,882.0
445.5253,803.0
445.5862,902.0
445.6473,766.0
445.7083,910.0
445.7693,835.0
445.8303,893.0
445.8912,799.0
445.9522,867.0
446.0132,775.0
446.0742,875.0
446.1352,806.0
446.1961,879.0
446.257,795.0
446.318,871.0
446.379,785.0
446.4399,811.0
446.5009,823.0
446.5618,893.0
446.6227,773.0
446.6836,854.0
446.7446,785.0
446.8055,857.0
446.8664,816.0
446.9273,880.0
446.9883,795.0
447.0491,866.0
447.11,814.0
447.171,832.0
447.2319,758.0
447.2927,911.0
447.3536,781.0
447.4145,851.0
447.4753,810.0
447.5363,823.0
447.5971,783.0
447.658,878.0
447.7188,761.0
447.7797,863.0
447.8405,799.0
447.9014,823.0
447.9623,753.0
448.0231,822.0
448.0839,755.0
448.1447,831.0
448.2056,745.0
448.2664,826.0
448.3272,797.0
448.3881,825.0
448.4489,773.0
448.5096,816.0
448.5705,755.0
448.6312,786.0
448.6921,770.0
448.7529,842.0
448.8137,742.0
448.8744,813.0
448.9352,775.0
448.9959,875.0
449.0567,761.0
449.1175,799.0
449.1783,746.0
449.239,861.0
449.2998,749.0
449.3605,818.0
449.4213,723.0
449.4821,829.0
449.5428,772.0
449.6035,838.0
449.6642,729.0
449.725,791.0
449.7857,728.0
449.8464,850.0
449.9071,701.0
449.9679,832.0
450.0285,717.0
450.0892,850.0
450.1499,727.0
450.2106,788.0
450.2714,742.0
450.332,802.0
450.3927,759.0
450.4534,783.0
450.514,738.0
450.5747,807.0
450.6354,729.0
450.696,791.0
450.7567,705.0
450.8174,823.0
450.878,733.0
450.9386,802.0
450.9993,707.0
451.0599,824.0
451.1206,737.0
451.1812,800.0
451.2418,741.0
451.3024,819.0
451.363,724.0
451.4236,792.0
451.4843,716.0
451.5449,834.0
451.6054,727.0
451.666,822.0
451.7267,764.0
451.7873,806.0
451.8478,699.0
451.9084,807.0
451.969,705.0
452.0295,810.0
452.0901,717.0
452.1507,793.0
452.2113,729.0
452.2718,780.0
452.3324,715.0
452.3929,802.0
452.4534,708.0
452.5139,824.0
452.5745,706.0
452.635,829.0
452.6956,759.0
452.7561,786.0
452.8166,796.0
452.8771,857.0
452.9377,740.0
452.9981,789.0
453.0586,785.0
453.1191,854.0
453.1796,754.0
453.2401,800.0
453.3006,752.0
453.3611,790.0
453.4216,713.0
453.4821,815.0
453.5425,736.0
453.6029,794.0
453.6634,729.0
453.7239,788.0
453.7844,731.0
453.8448,836.0
453.9052,743.0
453.9656,810.0
454.0261,756.0
454.0866,855.0
454.147,726.0
454.2074,825.0
454.2678,737.0
454.3282,798.0
454.3886,771.0
454.449,825.0
454.5095,768.0
454.5699,822.0
454.6302,733.0
454.6906,847.0
454.751,750.0
454.8114,868.0
454.8718,749.0
454.9322,828.0
454.9925,741.0
455.0529,859.0
455.1133,750.0
455.1736,842.0
455.234,768.0
455.2943,838.0
455.3547,767.0
455.415,839.0
455.4753,747.0
455.5357,842.0
455.5959,757.0
455.6563,863.0
455.7167,729.0
455.777,871.0
455.8373,765.0
455.8976,806.0
455.9579,815.0
456.0182,840.0
456.0785,743.0
456.1388,854.0
456.1991,733.0
456.2593,833.0
456.3196,742.0
456.3799,837.0
456.4402,773.0
456.5005,816.0
456.5607,716.0
456.621,823.0
456.6812,758.0
456.7414,856.0
456.8018,790.0
456.862,810.0
456.9222,749.0
456.9825,839.0
457.0426,756.0
457.1028,837.0
457.1631,757.0
457.2234,892.0
457.2835,767.0
457.3438,882.0
457.404,786.0
457.4641,850.0
457.5244,810.0
457.5846,869.0
457.6447,747.0
457.7049,887.0
457.7651,815.0
457.8253,857.0
457.8854,754.0
457.9456,841.0
458.0058,745.0
458.0659,823.0
458.1261,726.0
458.1862,895.0
458.2464,738.0
458.3066,862.0
458.3667,817.0
458.4268,863.0
458.4869,773.0
458.5471,727.0
458.6072,645.0
458.6674,712.0
458.7274,597.0
458.7876,686.0
458.8477,639.0
458.9077,696.0
458.9679,618.0
459.0279,730.0
459.0881,629.0
459.1481,705.0
459.2082,626.0
459.2683,741.0
459.3283,623.0
459.3884,746.0
459.4485,604.0
459.5086,737.0
459.5686,606.0
459.6287,671.0
459.6887,613.0
459.7487,718.0
459.8088,692.0
459.8688,717.0
459.9289,641.0
459.9889,722.0
460.0489,669.0
460.1089,696.0
460.1689,640.0
460.229,706.0
460.289,651.0
