Laser settings:
	Diode frequency:	5 Hz
	Pulses fired:		105
	Q-Switch blanking:	5
	Q-Switch delay:		201 μs
	Q-Switch presync:	1 μs
Spectrometer settings:
	Integration time:	0.0090 ms
	Integration delay:	0.000 ns
	Averaging:		1
	Trigger mode:		External
	Dynamic Dark Correction:		Disabled


wavelength,intensity
184.9409,655.0
185.0142,589.0
185.0875,662.0
185.1608,633.0
185.2341,686.0
185.3074,591.0
185.3807,726.0
185.454,651.0
185.5273,720.0
185.6006,581.0
185.6739,671.0
185.7472,617.0
185.8205,713.0
185.8938,648.0
185.9671,738.0
186.0403,619.0
186.1136,684.0
186.1869,640.0
186.2601,698.0
186.3334,587.0
186.4067,699.0
186.4799,588.0
186.5532,680.0
186.6265,645.0
186.6997,697.0
186.773,633.0
186.8462,688.0
186.9195,594.0
186.9928,712.0
187.066,654.0
187.1392,692.0
187.2125,628.0
187.2857,727.0
187.3589,634.0
187.4322,683.0
187.5054,676.0
187.5786,720.0
187.6519,637.0
187.7251,727.0
187.7983,665.0
187.8715,722.0
187.9447,644.0
188.018,700.0
188.0912,605.0
188.1644,708.0
188.2376,613.0
188.3108,738.0
188.384,638.0
188.4572,698.0
188.5304,700.0
188.6036,718.0
188.6768,645.0
188.75,733.0
188.8232,667.0
188.8963,682.0
188.9695,657.0
189.0427,724.0
189.1159,644.0
189.1891,693.0
189.2623,685.0
189.3354,732.0
189.4086,658.0
189.4818,720.0
189.5549,652.0
189.6281,714.0
189.7012,668.0
189.7744,699.0
189.8476,646.0
189.9207,700.0
189.9939,689.0
190.067,724.0
190.1402,709.0
190.2133,739.0
190.2864,676.0
190.3596,746.0
190.4327,650.0
190.5059,712.0
190.579,671.0
190.6521,724.0
190.7253,701.0
190.7984,739.0
190.8715,690.0
190.9446,731.0
191.0177,644.0
191.0908,730.0
191.164,647.0
191.2371,783.0
191.3102,683.0
191.3833,724.0
191.4564,687.0
191.5295,771.0
191.6026,653.0
191.6757,789.0
191.7488,658.0
191.8219,761.0
191.895,711.0
191.968,716.0
192.0411,706.0
192.1142,739.0
192.1873,670.0
192.2604,757.0
192.3334,662.0
192.4065,811.0
192.4796,713.0
192.5527,741.0
192.6257,652.0
192.6988,739.0
192.7718,727.0
192.8449,728.0
192.918,682.0
192.991,780.0
193.064,751.0
193.1371,763.0
193.2101,722.0
193.2832,757.0
193.3562,734.0
193.4292,759.0
193.5023,677.0
193.5753,785.0
193.6484,688.0
193.7214,751.0
193.7944,705.0
193.8674,800.0
193.9405,662.0
194.0135,802.0
194.0865,631.0
194.1595,788.0
194.2325,688.0
194.3055,793.0
194.3785,709.0
194.4515,863.0
194.5246,762.0
194.5975,768.0
194.6705,692.0
194.7435,754.0
194.8165,665.0
194.8895,777.0
194.9625,718.0
195.0355,750.0
195.1085,711.0
195.1815,752.0
195.2544,680.0
195.3274,765.0
195.4004,679.0
195.4734,791.0
195.5463,706.0
195.6193,788.0
195.6923,712.0
195.7652,733.0
195.8382,705.0
195.9111,785.0
195.9841,730.0
196.057,808.0
196.13,744.0
196.2029,802.0
196.2759,680.0
196.3488,787.0
196.4218,730.0
196.4947,810.0
196.5676,703.0
196.6406,792.0
196.7135,689.0
196.7864,829.0
196.8593,709.0
196.9323,769.0
197.0052,780.0
197.0781,808.0
197.151,680.0
197.2239,776.0
197.2969,712.0
197.3697,776.0
197.4427,694.0
197.5156,786.0
197.5885,732.0
197.6614,826.0
197.7343,738.0
197.8072,931.0
197.88,835.0
197.9529,980.0
198.0258,951.0
198.0987,905.0
198.1716,743.0
198.2445,765.0
198.3173,736.0
198.3902,781.0
198.4631,706.0
198.5359,827.0
198.6088,662.0
198.6817,814.0
198.7545,786.0
198.8274,839.0
198.9003,823.0
198.9731,943.0
199.046,825.0
199.1188,841.0
199.1917,763.0
199.2645,831.0
199.3373,739.0
199.4102,780.0
199.483,718.0
199.5559,773.0
199.6287,743.0
199.7015,841.0
199.7744,852.0
199.8472,941.0
199.92,1034.0
199.9928,1281.0
200.0656,1260.0
200.1385,1044.0
200.2113,852.0
200.2841,855.0
200.3569,710.0
200.4297,846.0
200.5025,730.0
200.5753,826.0
200.6481,725.0
200.7209,797.0
200.7937,699.0
200.8665,773.0
200.9393,693.0
201.0121,844.0
201.0848,754.0
201.1576,805.0
201.2304,708.0
201.3032,828.0
201.3759,766.0
201.4487,817.0
201.5215,792.0
201.5943,890.0
201.667,786.0
201.7398,825.0
201.8125,722.0
201.8853,828.0
201.958,717.0
202.0308,825.0
202.1035,722.0
202.1763,843.0
202.249,748.0
202.3218,832.0
202.3945,806.0
202.4673,971.0
202.54,987.0
202.6127,1144.0
202.6855,920.0
202.7582,903.0
202.8309,775.0
202.9036,857.0
202.9764,720.0
203.0491,866.0
203.1218,803.0
203.1945,947.0
203.2672,844.0
203.3399,966.0
203.4126,935.0
203.4853,1081.0
203.558,1255.0
203.6307,1648.0
203.7034,1557.0
203.7761,1545.0
203.8488,1266.0
203.9215,1033.0
203.9942,878.0
204.0669,960.0
204.1395,912.0
204.2122,1013.0
204.2849,1044.0
204.3576,1343.0
204.4302,1556.0
204.5029,1446.0
204.5756,1084.0
204.6482,886.0
204.7209,829.0
204.7935,896.0
204.8662,765.0
204.9389,894.0
205.0115,775.0
205.0842,898.0
205.1568,818.0
205.2294,860.0
205.3021,883.0
205.3747,1033.0
205.4474,1133.0
205.52,1439.0
205.5926,1264.0
205.6653,1169.0
205.7379,922.0
205.8105,892.0
205.8831,823.0
205.9557,832.0
206.0284,774.0
206.101,825.0
206.1736,784.0
206.2462,849.0
206.3188,788.0
206.3914,827.0
206.464,776.0
206.5366,800.0
206.6092,744.0
206.6818,840.0
206.7544,767.0
206.827,824.0
206.8996,714.0
206.9721,812.0
207.0447,770.0
207.1173,783.0
207.1899,802.0
207.2625,835.0
207.335,774.0
207.4076,759.0
207.4802,741.0
207.5527,773.0
207.6253,741.0
207.6978,833.0
207.7704,799.0
207.843,844.0
207.9155,778.0
207.9881,888.0
208.0606,894.0
208.1331,915.0
208.2057,812.0
208.2782,851.0
208.3508,792.0
208.4233,899.0
208.4958,829.0
208.5684,936.0
208.6409,869.0
208.7134,942.0
208.7859,893.0
208.8584,994.0
208.931,910.0
209.0035,938.0
209.076,889.0
209.1485,968.0
209.221,801.0
209.2935,871.0
209.366,789.0
209.4385,946.0
209.511,796.0
209.5835,968.0
209.656,805.0
209.7285,898.0
209.801,823.0
209.8735,958.0
209.9459,932.0
210.0184,984.0
210.0909,837.0
210.1634,971.0
210.2358,897.0
210.3083,944.0
210.3808,1010.0
210.4532,1240.0
210.5257,1315.0
210.5982,1300.0
210.6706,1052.0
210.7431,961.0
210.8155,868.0
210.888,957.0
210.9604,914.0
211.0329,1060.0
211.1053,1120.0
211.1777,1498.0
211.2502,1856.0
211.3226,1613.0
211.3951,1228.0
211.4675,1096.0
211.5399,989.0
211.6123,1028.0
211.6847,996.0
211.7572,1136.0
211.8296,1046.0
211.902,1198.0
211.9744,1062.0
212.0468,1118.0
212.1192,1092.0
212.1917,1317.0
212.264,1523.0
212.3364,1993.0
212.4088,1727.0
212.4812,1570.0
212.5536,1504.0
212.626,1819.0
212.6984,1642.0
212.7708,1415.0
212.8432,1135.0
212.9155,1078.0
212.9879,969.0
213.0603,1047.0
213.1326,1003.0
213.205,1107.0
213.2774,1183.0
213.3498,1322.0
213.4221,1533.0
213.4945,1917.0
213.5668,2377.0
213.6392,2943.0
213.7115,2421.0
213.7839,1900.0
213.8562,1374.0
213.9286,1238.0
214.0009,1085.0
214.0732,1062.0
214.1456,1010.0
214.2179,1039.0
214.2903,947.0
214.3626,984.0
214.4349,927.0
214.5072,987.0
214.5796,881.0
214.6519,971.0
214.7242,970.0
214.7965,1169.0
214.8688,1375.0
214.9411,1610.0
215.0134,1349.0
215.0857,1177.0
215.158,920.0
215.2303,1029.0
215.3026,947.0
215.3749,958.0
215.4472,870.0
215.5195,952.0
215.5918,822.0
215.6641,939.0
215.7363,843.0
215.8086,889.0
215.8809,850.0
215.9532,897.0
216.0254,859.0
216.0977,863.0
216.17,858.0
216.2422,1007.0
216.3145,882.0
216.3867,987.0
216.459,947.0
216.5313,1027.0
216.6035,955.0
216.6758,977.0
216.748,829.0
216.8202,919.0
216.8925,861.0
216.9647,845.0
217.037,868.0
217.1092,920.0
217.1814,827.0
217.2536,918.0
217.3259,888.0
217.3981,980.0
217.4703,918.0
217.5425,1117.0
217.6147,1097.0
217.687,1230.0
217.7592,1276.0
217.8314,1467.0
217.9035,1850.0
217.9758,2374.0
218.048,2083.0
218.1201,1614.0
218.1924,1311.0
218.2645,1209.0
218.3367,1073.0
218.4089,1039.0
218.4811,1007.0
218.5533,1035.0
218.6255,960.0
218.6976,1134.0
218.7698,1161.0
218.842,1329.0
218.9142,1567.0
218.9863,2168.0
219.0585,2191.0
219.1306,2142.0
219.2028,2586.0
219.2749,2907.0
219.3471,2370.0
219.4193,1721.0
219.4914,1343.0
219.5636,1325.0
219.6357,1263.0
219.7078,1315.0
219.78,1322.0
219.8521,1377.0
219.9242,1456.0
219.9964,1759.0
220.0685,1637.0
220.1406,1429.0
220.2128,1204.0
220.2849,1154.0
220.357,1077.0
220.4291,1094.0
220.5012,1030.0
220.5733,1066.0
220.6454,1073.0
220.7175,1118.0
220.7896,1089.0
220.8617,1283.0
220.9338,1351.0
221.0059,1728.0
221.078,1979.0
221.1501,1768.0
221.2222,1369.0
221.2943,1327.0
221.3663,1200.0
221.4384,1401.0
221.5105,1340.0
221.5826,1482.0
221.6546,1555.0
221.7267,1762.0
221.7988,2140.0
221.8708,2452.0
221.9429,1975.0
222.015,1517.0
222.087,1227.0
222.1591,1188.0
222.2311,1088.0
222.3032,1167.0
222.3752,1092.0
222.4473,1173.0
222.5193,1190.0
222.5913,1274.0
222.6634,1403.0
222.7354,1652.0
222.8074,1930.0
222.8795,2307.0
222.9515,2267.0
223.0235,2107.0
223.0955,1880.0
223.1675,1609.0
223.2395,1333.0
223.3116,1341.0
223.3836,1221.0
223.4556,1204.0
223.5276,1126.0
223.5996,1154.0
223.6716,1056.0
223.7436,1092.0
223.8156,1062.0
223.8876,1223.0
223.9595,1219.0
224.0315,1266.0
224.1035,1386.0
224.1755,1829.0
224.2475,2465.0
224.3195,2817.0
224.3914,2343.0
224.4634,1875.0
224.5354,1708.0
224.6073,2094.0
224.6793,2568.0
224.7512,3161.0
224.8232,2369.0
224.8952,1822.0
224.9671,1411.0
225.0391,1282.0
225.111,1108.0
225.1829,1152.0
225.2549,1071.0
225.3268,1057.0
225.3988,1015.0
225.4707,1016.0
225.5426,980.0
225.6146,1051.0
225.6865,962.0
225.7584,1021.0
225.8303,932.0
225.9022,1008.0
225.9742,925.0
226.0461,957.0
226.118,954.0
226.1899,1010.0
226.2618,920.0
226.3337,1002.0
226.4056,992.0
226.4775,1113.0
226.5494,989.0
226.6213,996.0
226.6932,961.0
226.7651,976.0
226.8369,894.0
226.9088,986.0
226.9807,892.0
227.0526,980.0
227.1245,890.0
227.1963,1015.0
227.2682,885.0
227.3401,1022.0
227.4119,888.0
227.4838,1001.0
227.5556,1115.0
227.6275,1314.0
227.6993,1345.0
227.7712,1168.0
227.8431,934.0
227.9149,955.0
227.9867,857.0
228.0586,906.0
228.1304,860.0
228.2023,959.0
228.2741,851.0
228.3459,942.0
228.4177,873.0
228.4896,908.0
228.5614,823.0
228.6332,901.0
228.705,879.0
228.7768,952.0
228.8486,862.0
228.9205,943.0
228.9923,876.0
229.0641,927.0
229.1359,846.0
229.2077,981.0
229.2794,951.0
229.3513,1124.0
229.423,1179.0
229.4948,1413.0
229.5666,1150.0
229.6384,1015.0
229.7102,900.0
229.782,853.0
229.8537,878.0
229.9255,885.0
229.9973,821.0
230.069,868.0
230.1408,774.0
230.2126,883.0
230.2843,812.0
230.3561,880.0
230.4278,780.0
230.4996,863.0
230.5713,763.0
230.6431,862.0
230.7148,782.0
230.7866,806.0
230.8583,743.0
230.93,817.0
231.0018,785.0
231.0735,849.0
231.1452,753.0
231.2169,879.0
231.2887,734.0
231.3604,828.0
231.4321,750.0
231.5038,850.0
231.5755,795.0
231.6472,857.0
231.7189,780.0
231.7906,833.0
231.8624,763.0
231.9341,841.0
232.0057,740.0
232.0774,844.0
232.1491,812.0
232.2208,841.0
232.2925,762.0
232.3642,814.0
232.4359,758.0
232.5075,924.0
232.5792,784.0
232.6509,865.0
232.7225,759.0
232.7942,845.0
232.8659,720.0
232.9375,806.0
233.0092,766.0
233.0809,867.0
233.1525,728.0
233.2242,840.0
233.2958,805.0
233.3675,865.0
233.4391,745.0
233.5107,830.0
233.5824,754.0
233.654,804.0
233.7256,762.0
233.7973,838.0
233.8689,761.0
233.9405,825.0
234.0121,796.0
234.0838,801.0
234.1554,761.0
234.227,836.0
234.2986,752.0
234.3702,842.0
234.4418,746.0
234.5134,882.0
234.585,764.0
234.6566,824.0
234.7282,737.0
234.7998,817.0
234.8714,753.0
234.943,846.0
235.0146,742.0
235.0862,836.0
235.1577,780.0
235.2293,794.0
235.3009,739.0
235.3725,807.0
235.444,778.0
235.5156,872.0
235.5872,745.0
235.6587,851.0
235.7303,847.0
235.8018,855.0
235.8734,806.0
235.9449,812.0
236.0165,765.0
236.088,833.0
236.1596,781.0
236.2311,853.0
236.3026,788.0
236.3742,858.0
236.4457,822.0
236.5172,848.0
236.5887,808.0
236.6603,882.0
236.7318,881.0
236.8033,995.0
236.8748,1012.0
236.9464,1396.0
237.0179,1535.0
237.0894,1528.0
237.1609,1073.0
237.2324,958.0
237.3039,848.0
237.3754,917.0
237.4469,858.0
237.5184,900.0
237.5898,809.0
237.6613,904.0
237.7328,826.0
237.8043,935.0
237.8758,838.0
237.9472,920.0
238.0187,804.0
238.0902,903.0
238.1617,809.0
238.2331,903.0
238.3046,830.0
238.376,844.0
238.4475,849.0
238.519,870.0
238.5904,819.0
238.6618,863.0
238.7333,818.0
238.8047,870.0
238.8762,823.0
238.9476,887.0
239.0191,783.0
239.0905,875.0
239.1619,735.0
239.2334,897.0
239.3048,825.0
239.3762,889.0
239.4476,801.0
239.519,881.0
239.5904,804.0
239.6619,910.0
239.7333,770.0
239.8047,900.0
239.8761,786.0
239.9475,962.0
240.0189,921.0
240.0903,1007.0
240.1617,924.0
240.233,937.0
240.3044,795.0
240.3758,914.0
240.4472,867.0
240.5186,958.0
240.59,882.0
240.6613,935.0
240.7327,883.0
240.8041,921.0
240.8754,841.0
240.9468,893.0
241.0181,787.0
241.0895,887.0
241.1609,818.0
241.2322,880.0
241.3036,812.0
241.3749,883.0
241.4462,791.0
241.5176,863.0
241.5889,774.0
241.6602,882.0
241.7316,769.0
241.8029,879.0
241.8743,759.0
241.9456,821.0
242.0169,745.0
242.0882,866.0
242.1595,823.0
242.2309,867.0
242.3022,842.0
242.3735,880.0
242.4448,765.0
242.5161,893.0
242.5874,825.0
242.6587,837.0
242.73,848.0
242.8013,876.0
242.8726,768.0
242.9438,866.0
243.0151,800.0
243.0864,860.0
243.1577,762.0
243.229,882.0
243.3002,797.0
243.3715,862.0
243.4428,790.0
243.5141,827.0
243.5853,829.0
243.6566,866.0
243.7278,757.0
243.7991,885.0
243.8703,795.0
243.9416,892.0
244.0128,765.0
244.0841,856.0
244.1553,850.0
244.2266,907.0
244.2978,794.0
244.369,890.0
244.4402,806.0
244.5115,901.0
244.5827,835.0
244.6539,919.0
244.7251,795.0
244.7964,853.0
244.8676,830.0
244.9388,911.0
245.01,823.0
245.0812,885.0
245.1524,872.0
245.2236,867.0
245.2948,821.0
245.366,851.0
245.4372,778.0
245.5084,866.0
245.5796,755.0
245.6507,880.0
245.7219,789.0
245.7931,837.0
245.8643,805.0
245.9355,843.0
246.0066,790.0
246.0778,856.0
246.149,738.0
246.2201,870.0
246.2913,777.0
246.3624,845.0
246.4336,758.0
246.5047,883.0
246.5759,741.0
246.647,852.0
246.7182,772.0
246.7893,855.0
246.8605,771.0
246.9316,896.0
247.0027,766.0
247.0739,868.0
247.145,767.0
247.2161,849.0
247.2872,788.0
247.3584,881.0
247.4295,814.0
247.5006,905.0
247.5717,752.0
247.6428,866.0
247.7139,794.0
247.785,839.0
247.8561,758.0
247.9272,840.0
247.9983,783.0
248.0694,865.0
248.1405,763.0
248.2116,849.0
248.2827,788.0
248.3537,853.0
248.4248,780.0
248.4959,839.0
248.5669,742.0
248.638,924.0
248.7091,788.0
248.7802,912.0
248.8512,823.0
248.9223,921.0
248.9933,848.0
249.0644,846.0
249.1354,818.0
249.2065,883.0
249.2775,852.0
249.3486,904.0
249.4196,743.0
249.4906,873.0
249.5617,755.0
249.6327,876.0
249.7037,748.0
249.7747,877.0
249.8458,778.0
249.9168,913.0
249.9878,778.0
250.0588,900.0
250.1298,828.0
250.2009,831.0
250.2719,808.0
250.3429,861.0
250.4138,736.0
250.4849,838.0
250.5558,823.0
250.6268,922.0
250.6978,852.0
250.7688,912.0
250.8398,829.0
250.9108,901.0
250.9818,843.0
251.0527,898.0
251.1237,820.0
251.1947,876.0
251.2657,798.0
251.3366,889.0
251.4076,813.0
251.4785,894.0
251.5495,816.0
251.6205,905.0
251.6914,830.0
251.7623,938.0
251.8333,827.0
251.9042,858.0
251.9752,844.0
252.0461,861.0
252.1171,765.0
252.188,817.0
252.2589,801.0
252.3298,880.0
252.4008,800.0
252.4717,906.0
252.5426,808.0
252.6135,884.0
252.6844,822.0
252.7553,896.0
252.8262,843.0
252.8971,878.0
252.9681,850.0
253.039,931.0
253.1098,878.0
253.1808,927.0
253.2516,811.0
253.3225,873.0
253.3934,813.0
253.4643,843.0
253.5352,789.0
253.606,869.0
253.6769,808.0
253.7478,854.0
253.8187,867.0
253.8895,886.0
253.9604,774.0
254.0312,860.0
254.1021,807.0
254.173,839.0
254.2438,775.0
254.3147,935.0
254.3855,804.0
254.4563,903.0
254.5272,881.0
254.598,1047.0
254.6689,891.0
254.7397,962.0
254.8105,863.0
254.8813,852.0
254.9522,889.0
255.023,895.0
255.0938,807.0
255.1646,915.0
255.2354,772.0
255.3062,900.0
255.3771,733.0
255.4479,897.0
255.5187,759.0
255.5894,908.0
255.6603,826.0
255.731,902.0
255.8018,808.0
255.8726,923.0
255.9434,792.0
256.0142,887.0
256.085,801.0
256.1558,920.0
256.2265,803.0
256.2973,872.0
256.3681,791.0
256.4388,868.0
256.5096,752.0
256.5804,871.0
256.6511,776.0
256.7219,849.0
256.7926,848.0
256.8634,856.0
256.9341,837.0
257.0049,862.0
257.0756,804.0
257.1463,846.0
257.2171,788.0
257.2878,910.0
257.3585,771.0
257.4292,818.0
257.5,769.0
257.5707,864.0
257.6414,789.0
257.7122,851.0
257.7828,795.0
257.8535,846.0
257.9243,744.0
257.995,868.0
258.0657,799.0
258.1364,819.0
258.2071,795.0
258.2777,826.0
258.3484,784.0
258.4191,839.0
258.4898,799.0
258.5605,841.0
258.6312,755.0
258.7018,880.0
258.7725,793.0
258.8432,801.0
258.9139,762.0
258.9845,809.0
259.0552,740.0
259.1259,880.0
259.1965,820.0
259.2672,865.0
259.3378,800.0
259.4085,844.0
259.4791,736.0
259.5497,820.0
259.6204,694.0
259.691,852.0
259.7617,776.0
259.8323,890.0
259.9029,764.0
259.9735,839.0
260.0442,830.0
260.1147,854.0
260.1854,783.0
260.256,848.0
260.3267,791.0
260.3972,873.0
260.4678,749.0
260.5384,835.0
260.6091,774.0
260.6796,833.0
260.7502,754.0
260.8208,854.0
260.8914,759.0
260.962,847.0
261.0326,790.0
261.1032,843.0
261.1737,793.0
261.2444,867.0
261.3149,763.0
261.3854,823.0
261.456,759.0
261.5266,860.0
261.5971,795.0
261.6677,865.0
261.7383,827.0
261.8088,869.0
261.8794,822.0
261.9499,901.0
262.0205,862.0
262.091,911.0
262.1615,792.0
262.2321,883.0
262.3026,810.0
262.3731,859.0
262.4437,745.0
262.5142,862.0
262.5847,799.0
262.6552,843.0
262.7257,749.0
262.7962,914.0
262.8668,763.0
262.9373,837.0
263.0078,767.0
263.0783,844.0
263.1488,783.0
263.2193,833.0
263.2898,828.0
263.3603,865.0
263.4307,792.0
263.5012,865.0
263.5717,804.0
263.6422,842.0
263.7127,802.0
263.7831,858.0
263.8536,746.0
263.9241,920.0
263.9945,781.0
264.065,875.0
264.1354,731.0
264.2059,849.0
264.2764,748.0
264.3468,878.0
264.4173,755.0
264.4877,859.0
264.5581,746.0
264.6286,860.0
264.699,765.0
264.7694,821.0
264.8399,747.0
264.9103,817.0
264.9807,718.0
265.0511,834.0
265.1216,762.0
265.192,845.0
265.2625,724.0
265.3328,817.0
265.4032,763.0
265.4736,825.0
265.5441,768.0
265.6144,814.0
265.6848,748.0
265.7552,807.0
265.8256,752.0
265.896,822.0
265.9664,737.0
266.0368,848.0
266.1071,759.0
266.1775,800.0
266.2479,801.0
266.3183,792.0
266.3886,760.0
266.459,815.0
266.5294,720.0
266.5998,826.0
266.6701,752.0
266.7404,844.0
266.8108,769.0
266.8812,776.0
266.9515,725.0
267.0219,802.0
267.0922,730.0
267.1625,802.0
267.2328,750.0
267.3032,848.0
267.3735,717.0
267.4438,793.0
267.5142,745.0
267.5845,839.0
267.6548,802.0
267.7251,818.0
267.7954,710.0
267.8657,808.0
267.936,767.0
268.0063,781.0
268.0766,715.0
268.1469,797.0
268.2172,716.0
268.2875,815.0
268.3578,716.0
268.4281,763.0
268.4984,774.0
268.5686,812.0
268.6389,713.0
268.7092,760.0
268.7794,763.0
268.8498,821.0
268.92,732.0
268.9902,864.0
269.0605,734.0
269.1308,785.0
269.201,804.0
269.2713,820.0
269.3415,726.0
269.4118,813.0
269.482,730.0
269.5523,828.0
269.6225,708.0
269.6927,797.0
269.7629,770.0
269.8332,823.0
269.9034,762.0
269.9736,836.0
270.0439,758.0
270.114,859.0
270.1843,753.0
270.2545,825.0
270.3247,824.0
270.3949,835.0
270.4651,811.0
270.5353,868.0
270.6055,752.0
270.6757,806.0
270.7459,779.0
270.8161,809.0
270.8863,764.0
270.9564,854.0
271.0266,757.0
271.0968,853.0
271.167,750.0
271.2371,856.0
271.3073,809.0
271.3775,880.0
271.4476,788.0
271.5178,873.0
271.588,826.0
271.6581,830.0
271.7282,774.0
271.7984,864.0
271.8685,788.0
271.9387,853.0
272.0088,773.0
272.0789,859.0
272.1491,796.0
272.2192,850.0
272.2893,820.0
272.3595,830.0
272.4296,789.0
272.4997,862.0
272.5698,751.0
272.64,898.0
272.7101,779.0
272.7802,814.0
272.8503,767.0
272.9204,869.0
272.9904,787.0
273.0605,895.0
273.1306,757.0
273.2007,841.0
273.2708,768.0
273.3409,849.0
273.411,785.0
273.481,832.0
273.5511,762.0
273.6212,856.0
273.6913,794.0
273.7614,860.0
273.8314,760.0
273.9015,857.0
273.9715,796.0
274.0416,861.0
274.1116,814.0
274.1817,856.0
274.2517,770.0
274.3217,890.0
274.3918,802.0
274.4619,877.0
274.5319,742.0
274.602,855.0
274.6719,815.0
274.742,885.0
274.812,856.0
274.882,891.0
274.952,771.0
275.0221,879.0
275.0921,788.0
275.1621,850.0
275.2321,785.0
275.3021,873.0
275.3721,787.0
275.4421,816.0
275.5121,759.0
275.5821,870.0
275.6521,780.0
275.722,839.0
275.792,808.0
275.862,883.0
275.932,729.0
276.002,836.0
276.0719,763.0
276.1418,834.0
276.2119,797.0
276.2818,860.0
276.3517,836.0
276.4218,859.0
276.4917,821.0
276.5616,824.0
276.6316,760.0
276.7015,854.0
276.7715,825.0
276.8414,850.0
276.9113,762.0
276.9813,874.0
277.0512,789.0
277.1211,830.0
277.191,807.0
277.261,875.0
277.3309,753.0
277.4008,876.0
277.4707,741.0
277.5406,847.0
277.6105,771.0
277.6804,804.0
277.7503,758.0
277.8202,852.0
277.8901,793.0
277.96,881.0
278.0299,746.0
278.0998,831.0
278.1697,720.0
278.2396,800.0
278.3094,802.0
278.3793,849.0
278.4492,719.0
278.519,832.0
278.5889,760.0
278.6588,855.0
278.7286,774.0
278.7985,821.0
278.8683,764.0
278.9382,872.0
279.0081,761.0
279.0779,805.0
279.1477,752.0
279.2176,862.0
279.2874,738.0
279.3572,904.0
279.4271,778.0
279.4969,880.0
279.5667,777.0
279.6365,857.0
279.7063,782.0
279.7762,857.0
279.846,770.0
279.9158,858.0
279.9856,780.0
280.0554,865.0
280.1252,814.0
280.195,863.0
280.2648,769.0
280.3346,870.0
280.4044,780.0
280.4742,861.0
280.544,767.0
280.6137,858.0
280.6835,803.0
280.7533,844.0
280.8231,776.0
280.8928,863.0
280.9626,783.0
281.0323,849.0
281.1021,790.0
281.1719,896.0
281.2416,777.0
281.3114,835.0
281.3811,784.0
281.4509,871.0
281.5206,794.0
281.5904,852.0
281.6601,727.0
281.7299,884.0
281.7996,771.0
281.8693,895.0
281.939,820.0
282.0088,875.0
282.0784,734.0
282.1482,849.0
282.2179,761.0
282.2876,860.0
282.3573,825.0
282.427,927.0
282.4967,824.0
282.5664,878.0
282.6361,802.0
282.7058,872.0
282.7755,763.0
282.8452,842.0
282.9149,795.0
282.9845,869.0
283.0542,786.0
283.1239,831.0
283.1936,751.0
283.2632,857.0
283.3329,768.0
283.4026,835.0
283.4722,743.0
283.5419,883.0
283.6115,754.0
283.6812,842.0
283.7508,785.0
283.8205,829.0
283.8901,759.0
283.9597,817.0
284.0294,771.0
284.099,836.0
284.1686,790.0
284.2383,835.0
284.3079,758.0
284.3775,779.0
284.4471,724.0
284.5168,833.0
284.5864,723.0
284.656,807.0
284.7256,733.0
284.7952,800.0
284.8648,756.0
284.9344,831.0
285.004,785.0
285.0736,892.0
285.1432,778.0
285.2128,830.0
285.2823,717.0
285.3519,872.0
285.4215,714.0
285.4911,839.0
285.5606,773.0
285.6302,852.0
285.6998,748.0
285.7693,835.0
285.8389,769.0
285.9084,814.0
285.978,756.0
286.0475,816.0
286.1171,747.0
286.1866,844.0
286.2562,747.0
286.3257,832.0
286.3952,772.0
286.4648,817.0
286.5343,778.0
286.6039,795.0
286.6733,726.0
286.7429,804.0
286.8124,718.0
286.8819,817.0
286.9514,739.0
287.0209,857.0
287.0904,722.0
287.1599,873.0
287.2294,772.0
287.299,841.0
287.3684,774.0
287.4379,829.0
287.5074,740.0
287.5769,806.0
287.6464,782.0
287.7159,859.0
287.7853,768.0
287.8548,840.0
287.9243,811.0
287.9937,837.0
288.0632,805.0
288.1327,848.0
288.2021,752.0
288.2716,777.0
288.341,750.0
288.4105,836.0
288.4799,748.0
288.5493,836.0
288.6188,712.0
288.6882,809.0
288.7577,774.0
288.8271,836.0
288.8965,732.0
288.9659,882.0
289.0354,762.0
289.1048,835.0
289.1742,764.0
289.2436,812.0
289.313,785.0
289.3824,877.0
289.4518,799.0
289.5212,874.0
289.5906,734.0
289.66,836.0
289.7294,778.0
289.7988,843.0
289.8682,817.0
289.9376,859.0
290.007,754.0
290.0764,877.0
290.1457,779.0
290.2151,838.0
290.2844,765.0
290.3538,887.0
290.4232,774.0
290.4925,831.0
290.5619,749.0
290.6312,828.0
290.7006,773.0
290.7699,865.0
290.8393,773.0
290.9086,862.0
290.978,816.0
291.0473,832.0
291.1166,756.0
291.1859,848.0
291.2553,743.0
291.3246,830.0
291.3939,778.0
291.4632,842.0
291.5325,738.0
291.6018,871.0
291.6712,779.0
291.7405,855.0
291.8098,771.0
291.8791,899.0
291.9484,791.0
292.0176,869.0
292.0869,793.0
292.1562,881.0
292.2255,813.0
292.2948,855.0
292.3641,810.0
292.4334,892.0
292.5026,790.0
292.5719,918.0
292.6412,777.0
292.7104,859.0
292.7797,848.0
292.8489,897.0
292.9182,769.0
292.9875,866.0
293.0567,755.0
293.1259,850.0
293.1952,782.0
293.2644,838.0
293.3336,791.0
293.4029,875.0
293.4721,759.0
293.5413,841.0
293.6106,797.0
293.6798,869.0
293.749,747.0
293.8182,877.0
293.8875,776.0
293.9566,882.0
294.0259,814.0
294.0951,863.0
294.1642,774.0
294.2334,882.0
294.3026,785.0
294.3718,863.0
294.441,777.0
294.5102,893.0
294.5794,805.0
294.6485,876.0
294.7177,759.0
294.7869,894.0
294.8561,782.0
294.9253,918.0
294.9944,726.0
295.0636,905.0
295.1327,773.0
295.2019,845.0
295.271,753.0
295.3402,819.0
295.4093,798.0
295.4785,846.0
295.5476,784.0
295.6168,856.0
295.6859,747.0
295.755,855.0
295.8241,737.0
295.8932,850.0
295.9623,800.0
296.0315,903.0
296.1006,813.0
296.1697,882.0
296.2388,817.0
296.3079,832.0
296.377,841.0
296.4461,854.0
296.5152,739.0
296.5843,844.0
296.6534,736.0
296.7225,852.0
296.7916,771.0
296.8606,893.0
296.9297,792.0
296.9988,848.0
297.0679,728.0
297.137,865.0
297.206,754.0
297.2751,872.0
297.3441,778.0
297.4132,874.0
297.4823,800.0
297.5513,829.0
297.6204,768.0
297.6894,821.0
297.7584,741.0
297.8275,894.0
297.8965,788.0
297.9655,864.0
298.0346,800.0
298.1036,846.0
298.1726,789.0
298.2417,840.0
298.3106,784.0
298.3797,866.0
298.4487,791.0
298.5177,876.0
298.5867,786.0
298.6557,838.0
298.7247,769.0
298.7937,879.0
298.8627,820.0
298.9317,867.0
299.0007,755.0
299.0696,860.0
299.1386,773.0
299.2076,882.0
299.2766,811.0
299.3456,849.0
299.4145,822.0
299.4835,834.0
299.5524,809.0
299.6214,873.0
299.6903,754.0
299.7593,871.0
299.8282,777.0
299.8972,844.0
299.9661,812.0
300.0351,883.0
300.104,783.0
300.173,870.0
300.2419,786.0
300.3108,902.0
300.3797,737.0
300.4487,913.0
300.5176,783.0
300.5865,867.0
300.6554,753.0
300.7243,858.0
300.7932,788.0
300.8621,847.0
300.931,819.0
300.9999,898.0
301.0688,803.0
301.1377,884.0
301.2066,815.0
301.2755,897.0
301.3444,759.0
301.4132,885.0
301.4821,796.0
301.551,869.0
301.6199,844.0
301.6887,905.0
301.7576,774.0
301.8265,882.0
301.8953,816.0
301.9642,856.0
302.033,786.0
302.1019,873.0
302.1707,783.0
302.2396,870.0
302.3084,800.0
302.3772,869.0
302.4461,826.0
302.5149,885.0
302.5837,811.0
302.6526,880.0
302.7214,806.0
302.7902,905.0
302.859,808.0
302.9278,869.0
302.9966,830.0
303.0654,941.0
303.1342,778.0
303.203,866.0
303.2718,796.0
303.3406,917.0
303.4094,806.0
303.4781,893.0
303.547,843.0
303.6158,874.0
303.6845,836.0
303.7533,911.0
303.8221,834.0
303.8908,905.0
303.9596,819.0
304.0284,926.0
304.0971,829.0
304.1659,909.0
304.2346,820.0
304.3034,881.0
304.3721,791.0
304.4409,828.0
304.5096,788.0
304.5784,882.0
304.6471,764.0
304.7158,883.0
304.7845,818.0
304.8533,892.0
304.922,791.0
304.9907,874.0
305.0594,833.0
305.1281,915.0
305.1969,798.0
305.2656,875.0
305.3343,811.0
305.403,870.0
305.4717,803.0
305.5403,899.0
305.609,775.0
305.6778,897.0
305.7464,757.0
305.8151,863.0
305.8838,829.0
305.9525,879.0
306.0211,814.0
306.0898,866.0
306.1585,819.0
306.2271,908.0
306.2958,823.0
306.3645,907.0
306.4331,787.0
306.5017,859.0
306.5704,806.0
306.6391,887.0
306.7077,779.0
306.7763,885.0
306.845,775.0
306.9136,847.0
306.9822,823.0
307.0508,891.0
307.1195,810.0
307.1881,861.0
307.2567,777.0
307.3253,883.0
307.3939,819.0
307.4625,881.0
307.5312,762.0
307.5998,916.0
307.6684,767.0
307.7369,817.0
307.8055,762.0
307.8741,863.0
307.9427,780.0
308.0113,879.0
308.0799,778.0
308.1484,851.0
308.217,759.0
308.2856,828.0
308.3542,739.0
308.4227,883.0
308.4913,821.0
308.5598,907.0
308.6284,806.0
308.6969,849.0
308.7655,789.0
308.834,922.0
308.9026,793.0
308.9711,847.0
309.0396,742.0
309.1082,876.0
309.1767,773.0
309.2452,880.0
309.3138,765.0
309.3823,875.0
309.4508,810.0
309.5193,854.0
309.5878,774.0
309.6563,892.0
309.7249,791.0
309.7933,889.0
309.8618,835.0
309.9303,903.0
309.9988,798.0
310.0673,951.0
310.1358,806.0
310.2043,867.0
310.2728,805.0
310.3412,903.0
310.4097,767.0
310.4781,861.0
310.5466,779.0
310.6151,902.0
310.6836,865.0
310.752,885.0
310.8205,818.0
310.8889,917.0
310.9574,793.0
311.0258,848.0
311.0943,746.0
311.1627,889.0
311.2311,766.0
311.2996,888.0
311.368,808.0
311.4364,863.0
311.5049,792.0
311.5733,871.0
311.6417,802.0
311.7101,862.0
311.7785,797.0
311.8469,870.0
311.9153,823.0
311.9837,887.0
312.0521,779.0
312.1205,870.0
312.1889,775.0
312.2573,821.0
312.3257,787.0
312.3941,855.0
312.4624,763.0
312.5308,813.0
312.5992,764.0
312.6675,871.0
312.7359,793.0
312.8043,833.0
312.8727,734.0
312.941,894.0
313.0093,755.0
313.0777,792.0
313.1461,778.0
313.2144,881.0
313.2827,733.0
313.3511,835.0
313.4194,786.0
313.4877,793.0
313.5561,762.0
313.6244,834.0
313.6927,751.0
313.761,841.0
313.8294,714.0
313.8977,763.0
313.966,689.0
314.0343,857.0
314.1026,748.0
314.1709,827.0
314.2392,783.0
314.3075,838.0
314.3758,742.0
314.4441,836.0
314.5124,765.0
314.5806,833.0
314.6489,723.0
314.7172,885.0
314.7855,778.0
314.8537,850.0
314.922,768.0
314.9903,839.0
315.0585,754.0
315.1268,875.0
315.195,745.0
315.2633,860.0
315.3315,803.0
315.3998,803.0
315.468,731.0
315.5362,824.0
315.6045,756.0
315.6727,813.0
315.7409,765.0
315.8092,849.0
315.8774,782.0
315.9456,868.0
316.0138,748.0
316.082,880.0
316.1502,724.0
316.2184,875.0
316.2867,780.0
316.3549,894.0
316.423,790.0
316.4912,882.0
316.5594,795.0
316.6276,916.0
316.6958,805.0
316.764,917.0
316.8322,775.0
316.9003,865.0
316.9685,788.0
317.0367,912.0
317.1049,808.0
317.173,925.0
317.2411,846.0
317.3093,894.0
317.3774,832.0
317.4456,914.0
317.5137,798.0
317.5819,897.0
317.65,795.0
317.7182,872.0
317.7863,827.0
317.8545,893.0
317.9225,818.0
317.9907,889.0
318.0588,782.0
318.1269,913.0
318.195,840.0
318.2631,893.0
318.3312,788.0
318.3994,911.0
318.4675,790.0
318.5355,888.0
318.6036,810.0
318.6717,886.0
318.7398,813.0
318.8079,861.0
318.876,790.0
318.9441,903.0
319.0121,831.0
319.0802,878.0
319.1483,850.0
319.2164,857.0
319.2844,801.0
319.3525,877.0
319.4205,797.0
319.4886,913.0
319.5566,840.0
319.6247,884.0
319.6927,822.0
319.7608,932.0
319.8288,822.0
319.8968,896.0
319.9648,824.0
320.0329,895.0
320.1009,814.0
320.1689,895.0
320.237,834.0
320.305,872.0
320.373,803.0
320.441,877.0
320.509,801.0
320.577,895.0
320.645,826.0
320.713,901.0
320.781,856.0
320.849,856.0
320.917,763.0
320.985,859.0
321.0529,814.0
321.1209,906.0
321.1889,828.0
321.2568,863.0
321.3248,833.0
321.3928,873.0
321.4608,815.0
321.5287,882.0
321.5966,761.0
321.6646,872.0
321.7325,790.0
321.8005,905.0
321.8684,795.0
321.9364,892.0
322.0043,802.0
322.0722,879.0
322.1401,820.0
322.2081,911.0
322.276,852.0
322.344,909.0
322.4119,809.0
322.4797,884.0
322.5477,845.0
322.6156,910.0
322.6835,804.0
322.7514,930.0
322.8193,804.0
322.8871,862.0
322.955,847.0
323.0229,968.0
323.0908,835.0
323.1588,960.0
323.2266,831.0
323.2945,915.0
323.3623,808.0
323.4302,973.0
323.4981,824.0
323.5659,919.0
323.6338,895.0
323.7016,914.0
323.7695,852.0
323.8373,914.0
323.9052,901.0
323.973,959.0
324.0409,871.0
324.1087,1020.0
324.1765,951.0
324.2444,1016.0
324.3122,965.0
324.38,1081.0
324.4479,1090.0
324.5157,1311.0
324.5834,1522.0
324.6512,1852.0
324.7191,1948.0
324.7869,1987.0
324.8547,1779.0
324.9225,1497.0
324.9903,1212.0
325.058,1196.0
325.1259,993.0
325.1936,1033.0
325.2614,900.0
325.3292,1022.0
325.397,892.0
325.4647,964.0
325.5325,886.0
325.6002,930.0
325.668,807.0
325.7358,892.0
325.8036,826.0
325.8713,953.0
325.939,801.0
326.0068,909.0
326.0745,844.0
326.1422,877.0
326.21,808.0
326.2777,930.0
326.3455,808.0
326.4132,970.0
326.4809,856.0
326.5486,972.0
326.6164,859.0
326.6841,910.0
326.7518,863.0
326.8195,992.0
326.8872,854.0
326.9549,1007.0
327.0226,843.0
327.0903,1037.0
327.158,1044.0
327.2256,1345.0
327.2933,1495.0
327.361,1633.0
327.4287,1578.0
327.4964,1536.0
327.5641,1178.0
327.6317,1087.0
327.6994,922.0
327.767,1073.0
327.8347,882.0
327.9023,1021.0
327.97,929.0
328.0376,991.0
328.1053,866.0
328.1729,937.0
328.2406,892.0
328.3082,956.0
328.3759,839.0
328.4435,895.0
328.5111,856.0
328.5787,920.0
328.6463,856.0
328.7139,997.0
328.7816,821.0
328.8492,962.0
328.9168,856.0
328.9843,932.0
329.052,852.0
329.1196,926.0
329.1872,821.0
329.2548,916.0
329.3224,802.0
329.3899,912.0
329.4575,795.0
329.5251,894.0
329.5927,832.0
329.6602,887.0
329.7278,816.0
329.7953,929.0
329.8629,785.0
329.9305,940.0
329.998,827.0
330.0656,892.0
330.1331,812.0
330.2007,914.0
330.2682,834.0
330.3358,849.0
330.4033,814.0
330.4708,886.0
330.5383,805.0
330.6059,917.0
330.6734,850.0
330.7409,919.0
330.8084,863.0
330.876,926.0
330.9435,868.0
331.011,847.0
331.0784,791.0
331.1459,875.0
331.2134,821.0
331.2809,842.0
331.3484,769.0
331.4159,867.0
331.4834,737.0
331.5508,858.0
331.6183,799.0
331.6858,878.0
331.7533,801.0
331.8207,922.0
331.8882,827.0
331.9557,895.0
332.0231,787.0
332.0906,836.0
332.1581,779.0
332.2255,845.0
332.2929,761.0
332.3604,851.0
332.4278,816.0
332.4952,823.0
332.5627,730.0
332.6301,860.0
332.6975,789.0
332.7649,854.0
332.8323,769.0
332.8997,841.0
332.9672,748.0
333.0346,836.0
333.102,787.0
333.1694,844.0
333.2368,796.0
333.3042,842.0
333.3716,746.0
333.439,885.0
333.5063,742.0
333.5737,892.0
333.6411,775.0
333.7085,857.0
333.7758,766.0
333.8432,843.0
333.9106,726.0
333.9779,849.0
334.0453,742.0
334.1126,887.0
334.18,781.0
334.2473,835.0
334.3147,774.0
334.382,851.0
334.4494,789.0
334.5167,866.0
334.584,773.0
334.6514,871.0
334.7187,739.0
334.786,898.0
334.8533,781.0
334.9206,866.0
334.9879,751.0
335.0553,825.0
335.1226,749.0
335.1899,816.0
335.2572,797.0
335.3245,871.0
335.3918,808.0
335.459,888.0
335.5263,790.0
335.5936,858.0
335.6609,815.0
335.7282,894.0
335.7954,798.0
335.8627,897.0
335.93,805.0
335.9973,895.0
336.0645,733.0
336.1318,849.0
336.199,750.0
336.2662,888.0
336.3335,785.0
336.4008,846.0
336.468,746.0
336.5352,899.0
336.6024,776.0
336.6697,864.0
336.7369,787.0
336.8041,809.0
336.8714,711.0
336.9386,830.0
337.0058,730.0
337.073,837.0
337.1402,752.0
337.2074,831.0
337.2746,807.0
337.3418,817.0
337.409,776.0
337.4762,810.0
337.5434,775.0
337.6106,855.0
337.6777,726.0
337.7449,826.0
337.8121,791.0
337.8792,839.0
337.9464,781.0
338.0135,825.0
338.0807,745.0
338.1479,853.0
338.2151,735.0
338.2822,830.0
338.3493,760.0
338.4165,862.0
338.4836,764.0
338.5508,861.0
338.6179,745.0
338.6851,834.0
338.7521,769.0
338.8193,862.0
338.8864,768.0
338.9535,846.0
339.0206,761.0
339.0878,832.0
339.1548,731.0
339.222,874.0
339.289,747.0
339.3561,854.0
339.4233,732.0
339.4904,885.0
339.5574,757.0
339.6245,843.0
339.6916,757.0
339.7587,816.0
339.8257,746.0
339.8929,850.0
339.9599,769.0
340.0269,858.0
340.094,756.0
340.1611,829.0
340.2281,731.0
340.2952,812.0
340.3622,721.0
340.4293,844.0
340.4963,744.0
340.5633,839.0
340.6304,750.0
340.6974,840.0
340.7645,724.0
340.8315,870.0
340.8985,753.0
340.9655,817.0
341.0325,720.0
341.0995,836.0
341.1665,787.0
341.2335,830.0
341.3005,762.0
341.3675,856.0
341.4345,738.0
341.5015,835.0
341.5685,741.0
341.6355,847.0
341.7025,802.0
341.7694,835.0
341.8364,759.0
341.9034,872.0
341.9704,771.0
342.0373,861.0
342.1043,729.0
342.1712,831.0
342.2382,768.0
342.3051,839.0
342.3721,798.0
342.4391,854.0
342.506,797.0
342.5729,858.0
342.6398,725.0
342.7068,789.0
342.7737,745.0
342.8406,864.0
342.9076,783.0
342.9745,846.0
343.0414,738.0
343.1083,834.0
343.1752,758.0
343.2421,845.0
343.309,799.0
343.3759,841.0
343.4428,795.0
343.5097,861.0
343.5766,746.0
343.6434,827.0
343.7104,758.0
343.7772,821.0
343.8441,758.0
343.9109,825.0
343.9778,765.0
344.0447,863.0
344.1116,752.0
344.1784,835.0
344.2453,740.0
344.3121,862.0
344.3789,761.0
344.4458,852.0
344.5127,765.0
344.5795,866.0
344.6463,779.0
344.7131,832.0
344.78,774.0
344.8468,864.0
344.9136,749.0
344.9805,877.0
345.0473,812.0
345.1141,851.0
345.1809,764.0
345.2477,916.0
345.3145,802.0
345.3813,868.0
345.4481,823.0
345.5149,846.0
345.5816,754.0
345.6484,877.0
345.7152,764.0
345.782,865.0
345.8488,753.0
345.9155,847.0
345.9823,792.0
346.049,856.0
346.1158,764.0
346.1826,810.0
346.2493,791.0
346.3161,876.0
346.3828,758.0
346.4496,868.0
346.5163,763.0
346.5831,853.0
346.6498,798.0
346.7165,859.0
346.7832,790.0
346.85,887.0
346.9167,764.0
346.9834,851.0
347.0501,729.0
347.1168,825.0
347.1835,813.0
347.2502,852.0
347.3169,775.0
347.3836,844.0
347.4503,750.0
347.517,830.0
347.5837,812.0
347.6504,849.0
347.717,768.0
347.7837,895.0
347.8504,803.0
347.9171,840.0
347.9837,768.0
348.0504,884.0
348.1171,761.0
348.1837,875.0
348.2504,804.0
348.317,890.0
348.3837,800.0
348.4503,890.0
348.5169,773.0
348.5836,870.0
348.6502,781.0
348.7169,862.0
348.7835,817.0
348.8501,894.0
348.9167,805.0
348.9833,950.0
349.0499,835.0
349.1165,876.0
349.1832,773.0
349.2498,880.0
349.3163,805.0
349.3829,851.0
349.4495,744.0
349.5161,852.0
349.5827,798.0
349.6493,920.0
349.7159,755.0
349.7824,888.0
349.849,816.0
349.9156,865.0
349.9821,800.0
350.0487,865.0
350.1153,820.0
350.1818,864.0
350.2484,752.0
350.3149,880.0
350.3814,784.0
350.448,860.0
350.5146,746.0
350.5811,826.0
350.6476,804.0
350.7141,868.0
350.7807,798.0
350.8472,865.0
350.9137,735.0
350.9802,898.0
351.0467,790.0
351.1132,843.0
351.1797,792.0
351.2462,861.0
351.3127,795.0
351.3792,909.0
351.4457,755.0
351.5122,862.0
351.5787,790.0
351.6451,879.0
351.7116,786.0
351.7781,903.0
351.8446,811.0
351.911,871.0
351.9775,761.0
352.044,917.0
352.1104,803.0
352.1769,877.0
352.2433,803.0
352.3098,898.0
352.3762,824.0
352.4427,899.0
352.5091,772.0
352.5755,851.0
352.642,781.0
352.7084,896.0
352.7748,803.0
352.8412,874.0
352.9077,793.0
352.9741,886.0
353.0405,784.0
353.1068,911.0
353.1732,771.0
353.2396,910.0
353.306,803.0
353.3724,866.0
353.4388,809.0
353.5052,861.0
353.5716,799.0
353.638,871.0
353.7043,797.0
353.7707,882.0
353.8371,758.0
353.9034,915.0
353.9698,793.0
354.0362,852.0
354.1025,797.0
354.1689,883.0
354.2352,795.0
354.3016,840.0
354.3679,806.0
354.4342,898.0
354.5005,753.0
354.5669,869.0
354.6332,826.0
354.6996,885.0
354.7659,815.0
354.8322,874.0
354.8985,768.0
354.9648,841.0
355.0311,738.0
355.0974,865.0
355.1637,775.0
355.23,846.0
355.2963,738.0
355.3625,817.0
355.4289,756.0
355.4952,837.0
355.5614,721.0
355.6277,849.0
355.694,780.0
355.7603,802.0
355.8265,762.0
355.8928,814.0
355.959,746.0
356.0253,824.0
356.0916,719.0
356.1578,819.0
356.224,693.0
356.2903,799.0
356.3565,734.0
356.4228,813.0
356.489,715.0
356.5552,806.0
356.6214,721.0
356.6876,831.0
356.7539,724.0
356.8201,865.0
356.8863,753.0
356.9525,824.0
357.0187,711.0
357.0849,798.0
357.1511,718.0
357.2173,808.0
357.2835,724.0
357.3497,825.0
357.4158,759.0
357.482,817.0
357.5482,710.0
357.6144,818.0
357.6805,738.0
357.7467,831.0
357.8128,718.0
357.879,843.0
357.9452,739.0
358.0114,827.0
358.0775,747.0
358.1436,823.0
358.2097,701.0
358.2759,819.0
358.342,749.0
358.4082,835.0
358.4743,729.0
358.5404,776.0
358.6065,725.0
358.6726,800.0
358.7387,729.0
358.8049,804.0
358.871,720.0
358.9371,830.0
359.0032,688.0
359.0693,830.0
359.1353,712.0
359.2014,786.0
359.2676,735.0
359.3336,838.0
359.3997,723.0
359.4658,822.0
359.5318,723.0
359.5979,851.0
359.664,729.0
359.7301,847.0
359.7961,761.0
359.8622,837.0
359.9282,773.0
359.9943,842.0
360.0603,737.0
360.1264,866.0
360.1924,778.0
360.2585,802.0
360.3244,751.0
360.3905,812.0
360.4565,751.0
360.5225,841.0
360.5885,781.0
360.6546,873.0
360.7206,734.0
360.7866,809.0
360.8526,718.0
360.9185,798.0
360.9846,722.0
361.0506,875.0
361.1165,720.0
361.1825,811.0
361.2485,761.0
361.3145,843.0
361.3805,761.0
361.4465,812.0
361.5124,747.0
361.5784,824.0
361.6443,775.0
361.7103,816.0
361.7762,734.0
361.8422,897.0
361.9082,774.0
361.9741,809.0
362.04,754.0
362.106,845.0
362.1719,764.0
362.2379,843.0
362.3038,752.0
362.3697,835.0
362.4356,768.0
362.5015,870.0
362.5675,789.0
362.6334,846.0
362.6993,785.0
362.7652,844.0
362.8311,741.0
362.8969,870.0
362.9629,739.0
363.0287,878.0
363.0947,792.0
363.1605,872.0
363.2264,773.0
363.2923,829.0
363.3582,761.0
363.424,792.0
363.4899,756.0
363.5557,844.0
363.6216,786.0
363.6874,806.0
363.7533,770.0
363.8191,816.0
363.885,720.0
363.9508,801.0
364.0167,701.0
364.0825,817.0
364.1483,744.0
364.2142,858.0
364.28,780.0
364.3458,848.0
364.4116,756.0
364.4774,836.0
364.5432,741.0
364.609,828.0
364.6748,764.0
364.7406,834.0
364.8065,734.0
364.8722,858.0
364.938,770.0
365.0038,810.0
365.0696,757.0
365.1354,841.0
365.2011,737.0
365.2669,845.0
365.3326,769.0
365.3984,824.0
365.4642,774.0
365.5299,834.0
365.5957,730.0
365.6614,852.0
365.7272,754.0
365.7929,839.0
365.8587,753.0
365.9244,883.0
365.9902,762.0
366.0559,859.0
366.1216,743.0
366.1873,816.0
366.253,741.0
366.3188,849.0
366.3845,779.0
366.4502,839.0
366.5159,740.0
366.5816,868.0
366.6473,772.0
366.713,791.0
366.7787,731.0
366.8444,842.0
366.91,760.0
366.9757,836.0
367.0414,741.0
367.1071,845.0
367.1727,751.0
367.2384,786.0
367.3041,742.0
367.3697,790.0
367.4354,754.0
367.501,833.0
367.5667,695.0
367.6323,841.0
367.698,765.0
367.7636,809.0
367.8292,768.0
367.8948,813.0
367.9605,694.0
368.0261,804.0
368.0918,704.0
368.1573,820.0
368.223,728.0
368.2885,837.0
368.3542,696.0
368.4198,796.0
368.4854,680.0
368.551,786.0
368.6165,664.0
368.6821,816.0
368.7477,740.0
368.8133,782.0
368.8789,751.0
368.9445,808.0
369.01,710.0
369.0756,808.0
369.1411,767.0
369.2067,825.0
369.2723,686.0
369.3379,807.0
369.4034,752.0
369.4689,751.0
369.5345,734.0
369.6,805.0
369.6656,695.0
369.7311,798.0
369.7966,691.0
369.8622,827.0
369.9277,726.0
369.9932,777.0
370.0587,743.0
370.1242,731.0
370.1897,721.0
370.2552,721.0
370.3207,684.0
370.3862,791.0
370.4517,711.0
370.5172,804.0
370.5827,736.0
370.6482,784.0
370.7136,741.0
370.7791,755.0
370.8446,738.0
370.9101,762.0
370.9756,658.0
371.041,818.0
371.1064,707.0
371.1719,767.0
371.2373,733.0
371.3028,831.0
371.3683,755.0
371.4337,805.0
371.4991,715.0
371.5646,806.0
371.63,747.0
371.6954,769.0
371.7608,696.0
371.8263,793.0
371.8917,745.0
371.9571,771.0
372.0225,652.0
372.0879,816.0
372.1533,714.0
372.2187,804.0
372.2841,717.0
372.3495,840.0
372.4149,726.0
372.4803,823.0
372.5457,742.0
372.611,794.0
372.6764,748.0
372.7418,847.0
372.8071,755.0
372.8725,815.0
372.9379,739.0
373.0032,826.0
373.0686,729.0
373.1339,829.0
373.1992,677.0
373.2646,833.0
373.3299,735.0
373.3953,848.0
373.4606,738.0
373.5259,778.0
373.5912,726.0
373.6566,795.0
373.7219,686.0
373.7872,817.0
373.8525,765.0
373.9178,833.0
373.9831,713.0
374.0484,799.0
374.1137,732.0
374.179,822.0
374.2443,702.0
374.3096,864.0
374.3749,727.0
374.4401,830.0
374.5054,745.0
374.5706,801.0
374.636,744.0
374.7012,859.0
374.7665,757.0
374.8318,790.0
374.897,756.0
374.9622,814.0
375.0275,709.0
375.0927,802.0
375.158,727.0
375.2232,784.0
375.2885,729.0
375.3537,828.0
375.4189,691.0
375.4841,809.0
375.5493,714.0
375.6145,804.0
375.6797,702.0
375.745,795.0
375.8101,698.0
375.8754,799.0
375.9406,734.0
376.0057,833.0
376.071,721.0
376.1361,805.0
376.2013,703.0
376.2665,797.0
376.3317,704.0
376.3969,816.0
376.462,716.0
376.5272,817.0
376.5923,722.0
376.6575,830.0
376.7226,740.0
376.7878,836.0
376.8529,692.0
376.9181,795.0
376.9832,761.0
377.0483,772.0
377.1135,664.0
377.1786,794.0
377.2437,729.0
377.3089,770.0
377.374,726.0
377.4391,772.0
377.5042,721.0
377.5693,776.0
377.6344,701.0
377.6995,791.0
377.7646,726.0
377.8297,812.0
377.8948,738.0
377.9599,774.0
378.025,705.0
378.09,777.0
378.1551,702.0
378.2202,785.0
378.2852,701.0
378.3503,784.0
378.4154,726.0
378.4804,851.0
378.5455,700.0
378.6105,780.0
378.6755,722.0
378.7406,773.0
378.8057,747.0
378.8707,782.0
378.9357,704.0
379.0008,801.0
379.0658,686.0
379.1308,801.0
379.1958,753.0
379.2609,810.0
379.3259,682.0
379.3908,835.0
379.4558,730.0
379.5208,812.0
379.5858,715.0
379.6509,771.0
379.7159,743.0
379.7808,797.0
379.8458,724.0
379.9108,789.0
379.9758,735.0
380.0407,805.0
380.1057,694.0
380.1707,810.0
380.2356,720.0
380.3006,831.0
380.3655,714.0
380.4305,785.0
380.4955,715.0
380.5604,770.0
380.6253,723.0
380.6902,827.0
380.7552,744.0
380.8201,841.0
380.885,703.0
380.95,785.0
381.0149,743.0
381.0798,810.0
381.1447,720.0
381.2096,849.0
381.2745,720.0
381.3394,813.0
381.4043,721.0
381.4692,826.0
381.5341,724.0
381.5989,778.0
381.6638,710.0
381.7287,810.0
381.7936,715.0
381.8585,854.0
381.9233,759.0
381.9882,831.0
382.053,753.0
382.1179,807.0
382.1828,729.0
382.2476,833.0
382.3124,687.0
382.3773,818.0
382.4421,765.0
382.507,814.0
382.5718,734.0
382.6366,769.0
382.7014,757.0
382.7663,810.0
382.8311,699.0
382.8959,805.0
382.9607,718.0
383.0255,812.0
383.0903,727.0
383.1551,825.0
383.2199,758.0
383.2847,747.0
383.3495,682.0
383.4143,803.0
383.479,692.0
383.5438,755.0
383.6086,705.0
383.6734,759.0
383.7381,711.0
383.8029,828.0
383.8676,787.0
383.9324,786.0
383.9972,683.0
384.0619,815.0
384.1266,700.0
384.1914,791.0
384.2562,705.0
384.3209,727.0
384.3856,679.0
384.4503,792.0
384.515,677.0
384.5797,804.0
384.6445,665.0
384.7092,743.0
384.7739,680.0
384.8386,806.0
384.9033,736.0
384.968,754.0
385.0327,685.0
385.0974,792.0
385.162,667.0
385.2267,766.0
385.2914,699.0
385.3561,814.0
385.4208,736.0
385.4854,795.0
385.5501,685.0
385.6147,779.0
385.6794,697.0
385.7441,796.0
385.8087,699.0
385.8734,762.0
385.938,673.0
386.0027,788.0
386.0673,718.0
386.1319,789.0
386.1966,695.0
386.2612,804.0
386.3258,708.0
386.3904,773.0
386.455,696.0
386.5196,783.0
386.5843,746.0
386.6489,780.0
386.7135,732.0
386.778,802.0
386.8426,729.0
386.9072,783.0
386.9718,704.0
387.0364,744.0
387.101,761.0
387.1655,766.0
387.2301,727.0
387.2946,776.0
387.3593,710.0
387.4238,788.0
387.4884,715.0
387.5529,787.0
387.6175,700.0
387.682,821.0
387.7466,718.0
387.8111,801.0
387.8756,711.0
387.9402,796.0
388.0047,704.0
388.0692,743.0
388.1337,704.0
388.1982,807.0
388.2628,726.0
388.3272,812.0
388.3918,713.0
388.4563,794.0
388.5208,729.0
388.5852,805.0
388.6497,696.0
388.7142,758.0
388.7787,719.0
388.8432,792.0
388.9077,700.0
388.9721,774.0
389.0366,699.0
389.1011,813.0
389.1655,698.0
389.23,794.0
389.2944,725.0
389.3589,793.0
389.4233,646.0
389.4878,759.0
389.5522,687.0
389.6167,800.0
389.6811,722.0
389.7455,787.0
389.8099,697.0
389.8744,783.0
389.9388,762.0
390.0032,827.0
390.0676,753.0
390.132,796.0
390.1964,709.0
390.2608,795.0
390.3252,669.0
390.3896,774.0
390.454,716.0
390.5184,802.0
390.5827,687.0
390.6471,810.0
390.7115,695.0
390.7759,804.0
390.8402,723.0
390.9046,841.0
390.9689,721.0
391.0333,753.0
391.0977,722.0
391.162,847.0
391.2264,694.0
391.2907,826.0
391.355,730.0
391.4193,773.0
391.4837,693.0
391.548,805.0
391.6123,701.0
391.6767,789.0
391.741,718.0
391.8053,792.0
391.8696,692.0
391.9339,816.0
391.9982,710.0
392.0625,797.0
392.1268,798.0
392.1911,812.0
392.2553,714.0
392.3196,805.0
392.3839,730.0
392.4482,777.0
392.5125,696.0
392.5767,813.0
392.641,756.0
392.7053,755.0
392.7695,722.0
392.8338,844.0
392.898,768.0
392.9622,832.0
393.0265,743.0
393.0908,799.0
393.155,784.0
393.2192,850.0
393.2834,738.0
393.3477,841.0
393.4118,717.0
393.476,838.0
393.5403,725.0
393.6045,817.0
393.6687,724.0
393.7329,796.0
393.7971,729.0
393.8613,788.0
393.9255,730.0
393.9897,808.0
394.0539,726.0
394.118,820.0
394.1822,692.0
394.2464,771.0
394.3105,716.0
394.3747,801.0
394.4389,740.0
394.503,796.0
394.5672,691.0
394.6313,806.0
394.6954,730.0
394.7596,786.0
394.8238,688.0
394.8879,779.0
394.952,683.0
395.0161,779.0
395.0803,685.0
395.1444,750.0
395.2085,719.0
395.2726,795.0
395.3367,745.0
395.4008,766.0
395.4649,665.0
395.529,737.0
395.5931,675.0
395.6572,742.0
395.7213,675.0
395.7854,786.0
395.8495,688.0
395.9135,755.0
395.9776,697.0
396.0417,793.0
396.1057,685.0
396.1698,762.0
396.2339,677.0
396.2979,790.0
396.362,682.0
396.426,756.0
396.4901,721.0
396.5541,718.0
396.6181,719.0
396.6821,745.0
396.7462,680.0
396.8102,762.0
396.8743,677.0
396.9383,779.0
397.0023,698.0
397.0662,752.0
397.1302,685.0
397.1943,766.0
397.2583,653.0
397.3223,747.0
397.3862,656.0
397.4502,758.0
397.5142,677.0
397.5782,732.0
397.6422,667.0
397.7061,732.0
397.7701,651.0
397.8341,686.0
397.898,668.0
397.962,783.0
398.0259,684.0
398.0899,763.0
398.1538,693.0
398.2178,770.0
398.2817,699.0
398.3456,760.0
398.4096,655.0
398.4735,762.0
398.5374,709.0
398.6013,759.0
398.6653,686.0
398.7292,693.0
398.7931,705.0
398.857,760.0
398.9209,645.0
398.9848,767.0
399.0487,750.0
399.1125,754.0
399.1765,696.0
399.2404,734.0
399.3042,675.0
399.3681,795.0
399.432,649.0
399.4958,720.0
399.5597,677.0
399.6236,765.0
399.6875,691.0
399.7513,738.0
399.8152,706.0
399.879,774.0
399.9428,654.0
400.0067,775.0
400.0705,683.0
400.1343,779.0
400.1982,689.0
400.262,785.0
400.3258,687.0
400.3896,733.0
400.4534,677.0
400.5172,760.0
400.581,668.0
400.6448,775.0
400.7086,670.0
400.7724,732.0
400.8362,668.0
400.9,756.0
400.9638,669.0
401.0276,775.0
401.0913,744.0
401.1551,780.0
401.2189,724.0
401.2826,778.0
401.3464,703.0
401.4102,814.0
401.4739,686.0
401.5376,766.0
401.6014,729.0
401.6651,781.0
401.7289,703.0
401.7926,843.0
401.8564,715.0
401.92,784.0
401.9838,722.0
402.0475,761.0
402.1112,721.0
402.175,787.0
402.2386,704.0
402.3023,781.0
402.366,686.0
402.4297,816.0
402.4934,739.0
402.5571,782.0
402.6208,752.0
402.6845,777.0
402.7482,704.0
402.8118,769.0
402.8755,695.0
402.9392,794.0
403.0028,708.0
403.0665,804.0
403.1301,750.0
403.1938,797.0
403.2574,729.0
403.3211,816.0
403.3847,674.0
403.4484,781.0
403.512,702.0
403.5756,790.0
403.6393,754.0
403.7029,815.0
403.7665,746.0
403.8301,779.0
403.8937,685.0
403.9573,807.0
404.0209,707.0
404.0845,777.0
404.1481,701.0
404.2117,766.0
404.2753,737.0
404.3389,809.0
404.4024,714.0
404.466,760.0
404.5296,691.0
404.5932,790.0
404.6567,742.0
404.7203,785.0
404.7838,696.0
404.8474,791.0
404.9109,669.0
404.9745,775.0
405.0381,692.0
405.1016,810.0
405.1651,655.0
405.2286,802.0
405.2922,713.0
405.3557,762.0
405.4193,651.0
405.4828,791.0
405.5462,657.0
405.6097,750.0
405.6733,659.0
405.7368,763.0
405.8003,663.0
405.8638,746.0
405.9272,669.0
405.9907,767.0
406.0542,705.0
406.1177,777.0
406.1812,673.0
406.2446,778.0
406.3081,715.0
406.3716,800.0
406.435,716.0
406.4985,764.0
406.562,695.0
406.6254,773.0
406.6888,708.0
406.7523,762.0
406.8157,694.0
406.8791,761.0
406.9426,688.0
407.006,782.0
407.0694,719.0
407.1328,801.0
407.1962,670.0
407.2597,782.0
407.3231,713.0
407.3865,771.0
407.4499,656.0
407.5133,811.0
407.5767,729.0
407.64,752.0
407.7034,725.0
407.7668,770.0
407.8302,713.0
407.8936,788.0
407.9569,704.0
408.0203,770.0
408.0836,711.0
408.147,830.0
408.2104,688.0
408.2737,774.0
408.3371,733.0
408.4004,791.0
408.4637,681.0
408.5271,810.0
408.5905,723.0
408.6537,774.0
408.7171,703.0
408.7804,758.0
408.8437,693.0
408.907,801.0
408.9703,685.0
409.0336,811.0
409.0969,737.0
409.1602,780.0
409.2235,726.0
409.2868,790.0
409.3501,725.0
409.4134,820.0
409.4767,728.0
409.5399,813.0
409.6032,749.0
409.6665,790.0
409.7297,712.0
409.793,792.0
409.8563,720.0
409.9195,752.0
409.9827,727.0
410.046,808.0
410.1092,726.0
410.1725,818.0
410.2357,732.0
410.299,769.0
410.3622,728.0
410.4254,769.0
410.4886,727.0
410.5518,746.0
410.615,698.0
410.6782,820.0
410.7414,694.0
410.8046,805.0
410.8678,729.0
410.931,775.0
410.9942,678.0
411.0574,781.0
411.1205,678.0
411.1837,786.0
411.2469,713.0
411.3101,739.0
411.3733,720.0
411.4364,767.0
411.4995,689.0
411.5627,754.0
411.6259,675.0
411.689,768.0
411.7521,701.0
411.8153,754.0
411.8784,701.0
411.9415,793.0
412.0046,720.0
412.0678,728.0
412.1309,627.0
412.194,728.0
412.2571,670.0
412.3203,786.0
412.3833,684.0
412.4464,779.0
412.5096,678.0
412.5727,691.0
412.6357,675.0
412.6988,762.0
412.7619,681.0
412.825,725.0
412.8881,617.0
412.9511,713.0
413.0142,639.0
413.0772,714.0
413.1403,648.0
413.2033,750.0
413.2664,678.0
413.3294,711.0
413.3925,657.0
413.4555,722.0
413.5186,657.0
413.5816,759.0
413.6446,681.0
413.7076,718.0
413.7707,643.0
413.8337,746.0
413.8967,631.0
413.9597,736.0
414.0227,655.0
414.0857,715.0
414.1487,629.0
414.2117,713.0
414.2747,600.0
414.3376,735.0
414.4006,685.0
414.4636,704.0
414.5266,686.0
414.5896,762.0
414.6525,675.0
414.7155,772.0
414.7784,628.0
414.8414,727.0
414.9044,661.0
414.9673,745.0
415.0303,680.0
415.0932,792.0
415.1561,703.0
415.2191,740.0
415.282,626.0
415.3449,804.0
415.4079,666.0
415.4708,727.0
415.5336,666.0
415.5966,733.0
415.6595,672.0
415.7224,769.0
415.7853,639.0
415.8482,735.0
415.9111,634.0
415.9739,736.0
416.0368,676.0
416.0997,753.0
416.1626,693.0
416.2255,703.0
416.2883,730.0
416.3512,746.0
416.414,700.0
416.4769,766.0
416.5397,733.0
416.6026,747.0
416.6654,669.0
416.7283,744.0
416.7911,697.0
416.8539,722.0
416.9167,677.0
416.9796,740.0
417.0424,644.0
417.1052,784.0
417.168,717.0
417.2308,772.0
417.2936,672.0
417.3564,784.0
417.4193,656.0
417.4821,792.0
417.5448,658.0
417.6076,760.0
417.6704,672.0
417.7332,740.0
417.796,680.0
417.8587,755.0
417.9215,680.0
417.9842,760.0
418.047,680.0
418.1098,722.0
418.1725,649.0
418.2353,728.0
418.298,654.0
418.3607,770.0
418.4235,645.0
418.4862,782.0
418.549,638.0
418.6117,763.0
418.6744,651.0
418.7371,746.0
418.7998,623.0
418.8625,755.0
418.9252,645.0
418.9879,739.0
419.0507,631.0
419.1133,709.0
419.176,635.0
419.2387,768.0
419.3014,631.0
419.3641,731.0
419.4268,740.0
419.4894,741.0
419.5521,650.0
419.6147,739.0
419.6774,675.0
419.7401,740.0
419.8027,662.0
419.8654,735.0
419.928,679.0
419.9906,761.0
420.0533,690.0
420.1159,723.0
420.1785,659.0
420.2411,695.0
420.3038,632.0
420.3664,755.0
420.429,655.0
420.4916,755.0
420.5542,659.0
420.6168,716.0
420.6794,657.0
420.742,751.0
420.8046,671.0
420.8672,761.0
420.9297,642.0
420.9923,776.0
421.0549,637.0
421.1175,761.0
421.18,626.0
421.2426,727.0
421.3052,636.0
421.3677,700.0
421.4303,638.0
421.4928,739.0
421.5554,621.0
421.6179,722.0
421.6804,636.0
421.743,695.0
421.8055,667.0
421.868,716.0
421.9305,643.0
421.993,712.0
422.0556,641.0
422.1181,747.0
422.1806,624.0
422.2431,767.0
422.3055,630.0
422.368,704.0
422.4305,675.0
422.493,716.0
422.5555,621.0
422.618,745.0
422.6805,658.0
422.7429,713.0
422.8054,678.0
422.8679,732.0
422.9303,630.0
422.9928,739.0
423.0552,636.0
423.1177,713.0
423.1801,638.0
423.2425,743.0
423.305,671.0
423.3674,716.0
423.4298,662.0
423.4922,739.0
423.5547,639.0
423.617,701.0
423.6795,678.0
423.7419,771.0
423.8043,679.0
423.8667,717.0
423.9291,686.0
423.9915,737.0
424.0538,653.0
424.1163,727.0
424.1786,668.0
424.241,777.0
424.3034,684.0
424.3658,734.0
424.4281,679.0
424.4905,776.0
424.5529,694.0
424.6152,776.0
424.6775,673.0
424.7399,801.0
424.8022,702.0
424.8646,759.0
424.9269,704.0
424.9892,756.0
425.0515,734.0
425.1139,759.0
425.1762,681.0
425.2385,784.0
425.3008,694.0
425.3631,745.0
425.4254,683.0
425.4877,818.0
425.55,710.0
425.6123,791.0
425.6746,728.0
425.7369,801.0
425.7992,737.0
425.8614,791.0
425.9237,703.0
425.9859,788.0
426.0482,734.0
426.1105,788.0
426.1727,713.0
426.235,745.0
426.2972,718.0
426.3595,781.0
426.4217,694.0
426.4839,824.0
426.5462,694.0
426.6084,777.0
426.6706,706.0
426.7328,815.0
426.795,740.0
426.8573,787.0
426.9195,728.0
426.9817,767.0
427.0439,705.0
427.1061,788.0
427.1683,729.0
427.2305,788.0
427.2927,741.0
427.3549,778.0
427.417,734.0
427.4792,812.0
427.5413,778.0
427.6035,796.0
427.6657,717.0
427.7278,811.0
427.79,732.0
427.8521,773.0
427.9142,708.0
427.9764,808.0
428.0386,693.0
428.1007,766.0
428.1628,730.0
428.2249,798.0
428.287,704.0
428.3492,796.0
428.4113,661.0
428.4734,779.0
428.5355,697.0
428.5976,766.0
428.6597,702.0
428.7218,756.0
428.7839,693.0
428.846,774.0
428.9081,683.0
428.9702,757.0
429.0322,674.0
429.0943,774.0
429.1563,711.0
429.2184,807.0
429.2805,704.0
429.3425,751.0
429.4046,695.0
429.4666,717.0
429.5287,705.0
429.5908,736.0
429.6528,681.0
429.7148,793.0
429.7768,672.0
429.8388,692.0
429.9008,674.0
429.9629,700.0
430.0249,650.0
430.0869,750.0
430.1489,660.0
430.2109,743.0
430.2729,664.0
430.3349,727.0
430.3969,651.0
430.4589,730.0
430.5208,677.0
430.5828,750.0
430.6448,617.0
430.7068,699.0
430.7688,667.0
430.8307,742.0
430.8926,681.0
430.9546,760.0
431.0165,647.0
431.0785,755.0
431.1404,619.0
431.2024,754.0
431.2643,636.0
431.3262,795.0
431.3881,653.0
431.4501,691.0
431.512,639.0
431.5739,754.0
431.6358,645.0
431.6977,728.0
431.7596,643.0
431.8215,689.0
431.8834,649.0
431.9453,734.0
432.0072,688.0
432.0691,729.0
432.131,634.0
432.1928,768.0
432.2547,613.0
432.3165,668.0
432.3784,606.0
432.4403,677.0
432.5021,656.0
432.564,726.0
432.6258,632.0
432.6876,731.0
432.7495,632.0
432.8113,708.0
432.8732,619.0
432.935,688.0
432.9968,609.0
433.0586,712.0
433.1204,638.0
433.1823,695.0
433.2441,666.0
433.3059,686.0
433.3677,658.0
433.4295,667.0
433.4912,631.0
433.5531,747.0
433.6148,619.0
433.6766,717.0
433.7384,645.0
433.8001,675.0
433.8619,651.0
433.9237,759.0
433.9854,622.0
434.0472,680.0
434.1089,653.0
434.1707,663.0
434.2324,679.0
434.2942,727.0
434.3559,618.0
434.4177,740.0
434.4794,685.0
434.5411,749.0
434.6028,681.0
434.6645,715.0
434.7263,666.0
434.788,726.0
434.8497,686.0
434.9113,718.0
434.973,631.0
435.0347,749.0
435.0965,629.0
435.1581,743.0
435.2198,633.0
435.2815,725.0
435.3431,650.0
435.4048,728.0
435.4665,657.0
435.5282,726.0
435.5898,648.0
435.6515,713.0
435.7131,706.0
435.7747,748.0
435.8363,625.0
435.898,724.0
435.9597,650.0
436.0213,713.0
436.0829,636.0
436.1445,752.0
436.2061,714.0
436.2678,739.0
436.3294,666.0
436.391,800.0
436.4525,700.0
436.5141,699.0
436.5757,679.0
436.6373,735.0
436.6989,646.0
436.7605,746.0
436.8221,667.0
436.8836,695.0
436.9452,699.0
437.0067,751.0
437.0684,683.0
437.1299,707.0
437.1914,663.0
437.253,761.0
437.3145,709.0
437.3761,767.0
437.4376,659.0
437.4992,765.0
437.5607,656.0
437.6222,704.0
437.6837,677.0
437.7452,729.0
437.8067,676.0
437.8683,742.0
437.9298,712.0
437.9913,772.0
438.0528,662.0
438.1143,750.0
438.1757,647.0
438.2372,754.0
438.2987,678.0
438.3602,747.0
438.4217,699.0
438.4831,775.0
438.5446,671.0
438.6061,749.0
438.6675,645.0
438.729,747.0
438.7904,645.0
438.8519,735.0
438.9133,672.0
438.9747,756.0
439.0362,651.0
439.0976,738.0
439.159,643.0
439.2204,728.0
439.2819,630.0
439.3433,747.0
439.4047,643.0
439.4661,737.0
439.5275,704.0
439.5889,751.0
439.6503,655.0
439.7116,759.0
439.7731,686.0
439.8345,778.0
439.8958,635.0
439.9572,777.0
440.0186,705.0
440.0799,723.0
440.1413,639.0
440.2027,753.0
440.264,676.0
440.3253,766.0
440.3867,647.0
440.448,769.0
440.5093,680.0
440.5707,748.0
440.632,695.0
440.6934,755.0
440.7546,684.0
440.816,764.0
440.8773,664.0
440.9386,771.0
440.9999,697.0
441.0612,708.0
441.1225,686.0
441.1838,750.0
441.2451,687.0
441.3063,788.0
441.3677,684.0
441.429,779.0
441.4902,645.0
441.5515,787.0
441.6127,704.0
441.674,742.0
441.7353,701.0
441.7965,746.0
441.8578,653.0
441.919,756.0
441.9802,689.0
442.0414,784.0
442.1027,703.0
442.164,760.0
442.2252,696.0
442.2864,800.0
442.3476,682.0
442.4088,747.0
442.47,710.0
442.5312,760.0
442.5924,712.0
442.6536,769.0
442.7148,697.0
442.776,759.0
442.8372,666.0
442.8984,752.0
442.9596,680.0
443.0207,788.0
443.0819,689.0
443.143,737.0
443.2042,680.0
443.2653,778.0
443.3265,648.0
443.3877,750.0
443.4488,680.0
443.5099,746.0
443.5711,671.0
443.6322,776.0
443.6934,649.0
443.7545,804.0
443.8156,685.0
443.8767,753.0
443.9378,712.0
443.9989,768.0
444.0601,710.0
444.1212,784.0
444.1822,708.0
444.2433,786.0
444.3044,656.0
444.3654,745.0
444.4265,682.0
444.4877,738.0
444.5487,715.0
444.6098,796.0
444.6708,742.0
444.7319,773.0
444.7929,649.0
444.854,797.0
444.915,690.0
444.9761,751.0
445.0371,688.0
445.0981,756.0
445.1592,674.0
445.2203,783.0
445.2812,691.0
445.3423,786.0
445.4033,692.0
445.4643,755.0
445.5253,723.0
445.5862,839.0
445.6473,699.0
445.7083,790.0
445.7693,735.0
445.8303,809.0
445.8912,717.0
445.9522,757.0
446.0132,747.0
446.0742,809.0
446.1352,726.0
446.1961,816.0
446.257,736.0
446.318,805.0
446.379,706.0
446.4399,769.0
446.5009,734.0
446.5618,836.0
446.6227,700.0
446.6836,779.0
446.7446,692.0
446.8055,779.0
446.8664,738.0
446.9273,764.0
446.9883,715.0
447.0491,770.0
447.11,691.0
447.171,793.0
447.2319,676.0
447.2927,801.0
447.3536,737.0
447.4145,783.0
447.4753,732.0
447.5363,768.0
447.5971,690.0
447.658,788.0
447.7188,701.0
447.7797,770.0
447.8405,680.0
447.9014,729.0
447.9623,670.0
448.0231,742.0
448.0839,671.0
448.1447,728.0
448.2056,650.0
448.2664,759.0
448.3272,735.0
448.3881,771.0
448.4489,708.0
448.5096,777.0
448.5705,689.0
448.6312,729.0
448.6921,675.0
448.7529,764.0
448.8137,674.0
448.8744,730.0
448.9352,698.0
448.9959,767.0
449.0567,710.0
449.1175,739.0
449.1783,659.0
449.239,759.0
449.2998,659.0
449.3605,737.0
449.4213,649.0
449.4821,745.0
449.5428,651.0
449.6035,787.0
449.6642,656.0
449.725,738.0
449.7857,640.0
449.8464,773.0
449.9071,649.0
449.9679,758.0
450.0285,637.0
450.0892,782.0
450.1499,632.0
450.2106,690.0
450.2714,661.0
450.332,710.0
450.3927,667.0
450.4534,742.0
450.514,647.0
450.5747,702.0
450.6354,671.0
450.696,701.0
450.7567,661.0
450.8174,745.0
450.878,661.0
450.9386,761.0
450.9993,662.0
451.0599,754.0
451.1206,656.0
451.1812,742.0
451.2418,652.0
451.3024,709.0
451.363,631.0
451.4236,744.0
451.4843,633.0
451.5449,760.0
451.6054,696.0
451.666,745.0
451.7267,634.0
451.7873,712.0
451.8478,646.0
451.9084,738.0
451.969,654.0
452.0295,697.0
452.0901,692.0
452.1507,689.0
452.2113,615.0
452.2718,695.0
452.3324,624.0
452.3929,700.0
452.4534,622.0
452.5139,723.0
452.5745,601.0
452.635,714.0
452.6956,646.0
452.7561,703.0
452.8166,651.0
452.8771,724.0
452.9377,599.0
452.9981,679.0
453.0586,657.0
453.1191,735.0
453.1796,660.0
453.2401,739.0
453.3006,633.0
453.3611,680.0
453.4216,657.0
453.4821,720.0
453.5425,661.0
453.6029,716.0
453.6634,638.0
453.7239,716.0
453.7844,666.0
453.8448,720.0
453.9052,642.0
453.9656,747.0
454.0261,674.0
454.0866,785.0
454.147,622.0
454.2074,749.0
454.2678,635.0
454.3282,675.0
454.3886,626.0
454.449,751.0
454.5095,668.0
454.5699,753.0
454.6302,673.0
454.6906,751.0
454.751,629.0
454.8114,790.0
454.8718,662.0
454.9322,726.0
454.9925,649.0
455.0529,690.0
455.1133,669.0
455.1736,721.0
455.234,649.0
455.2943,718.0
455.3547,645.0
455.415,752.0
455.4753,666.0
455.5357,716.0
455.5959,653.0
455.6563,726.0
455.7167,648.0
455.777,719.0
455.8373,680.0
455.8976,712.0
455.9579,677.0
456.0182,740.0
456.0785,659.0
456.1388,708.0
456.1991,630.0
456.2593,732.0
456.3196,644.0
456.3799,699.0
456.4402,652.0
456.5005,711.0
456.5607,668.0
456.621,708.0
456.6812,651.0
456.7414,678.0
456.8018,651.0
456.862,710.0
456.9222,610.0
456.9825,707.0
457.0426,603.0
457.1028,709.0
457.1631,637.0
457.2234,703.0
457.2835,609.0
457.3438,715.0
457.404,640.0
457.4641,714.0
457.5244,633.0
457.5846,780.0
457.6447,627.0
457.7049,750.0
457.7651,647.0
457.8253,712.0
457.8854,612.0
457.9456,671.0
458.0058,595.0
458.0659,705.0
458.1261,584.0
458.1862,702.0
458.2464,643.0
458.3066,679.0
458.3667,642.0
458.4268,696.0
458.4869,649.0
458.5471,675.0
458.6072,619.0
458.6674,709.0
458.7274,624.0
458.7876,712.0
458.8477,609.0
458.9077,695.0
458.9679,606.0
459.0279,680.0
459.0881,644.0
459.1481,676.0
459.2082,617.0
459.2683,743.0
459.3283,624.0
459.3884,678.0
459.4485,632.0
459.5086,682.0
459.5686,593.0
459.6287,632.0
459.6887,627.0
459.7487,708.0
459.8088,689.0
459.8688,662.0
459.9289,628.0
459.9889,683.0
460.0489,624.0
460.1089,744.0
460.1689,635.0
460.229,672.0
460.289,589.0
