Laser settings:
	Diode frequency:	5 Hz
	Pulses fired:		105
	Q-Switch blanking:	5
	Q-Switch delay:		201 μs
	Q-Switch presync:	1 μs
Spectrometer settings:
	Integration time:	0.0090 ms
	Integration delay:	0.000 ns
	Averaging:		1
	Trigger mode:		External
	Dynamic Dark Correction:		Disabled


wavelength,intensity
184.9409,631.0
185.0142,592.0
185.0875,666.0
185.1608,652.0
185.2341,731.0
185.3074,621.0
185.3807,706.0
185.454,659.0
185.5273,698.0
185.6006,637.0
185.6739,676.0
185.7472,623.0
185.8205,701.0
185.8938,609.0
185.9671,706.0
186.0403,658.0
186.1136,705.0
186.1869,604.0
186.2601,716.0
186.3334,577.0
186.4067,709.0
186.4799,584.0
186.5532,688.0
186.6265,626.0
186.6997,706.0
186.773,644.0
186.8462,692.0
186.9195,624.0
186.9928,669.0
187.066,603.0
187.1392,688.0
187.2125,616.0
187.2857,716.0
187.3589,642.0
187.4322,707.0
187.5054,630.0
187.5786,710.0
187.6519,640.0
187.7251,739.0
187.7983,653.0
187.8715,729.0
187.9447,655.0
188.018,698.0
188.0912,607.0
188.1644,706.0
188.2376,632.0
188.3108,697.0
188.384,627.0
188.4572,709.0
188.5304,705.0
188.6036,718.0
188.6768,664.0
188.75,731.0
188.8232,638.0
188.8963,700.0
188.9695,657.0
189.0427,728.0
189.1159,657.0
189.1891,719.0
189.2623,692.0
189.3354,706.0
189.4086,660.0
189.4818,698.0
189.5549,647.0
189.6281,732.0
189.7012,669.0
189.7744,714.0
189.8476,669.0
189.9207,701.0
189.9939,702.0
190.067,698.0
190.1402,715.0
190.2133,774.0
190.2864,710.0
190.3596,785.0
190.4327,691.0
190.5059,735.0
190.579,713.0
190.6521,773.0
190.7253,646.0
190.7984,741.0
190.8715,667.0
190.9446,716.0
191.0177,668.0
191.0908,713.0
191.164,666.0
191.2371,775.0
191.3102,696.0
191.3833,726.0
191.4564,662.0
191.5295,771.0
191.6026,647.0
191.6757,820.0
191.7488,685.0
191.8219,771.0
191.895,695.0
191.968,733.0
192.0411,682.0
192.1142,770.0
192.1873,707.0
192.2604,813.0
192.3334,678.0
192.4065,795.0
192.4796,689.0
192.5527,781.0
192.6257,670.0
192.6988,773.0
192.7718,745.0
192.8449,804.0
192.918,858.0
192.991,991.0
193.064,1034.0
193.1371,1076.0
193.2101,1026.0
193.2832,941.0
193.3562,873.0
193.4292,879.0
193.5023,792.0
193.5753,827.0
193.6484,758.0
193.7214,798.0
193.7944,709.0
193.8674,808.0
193.9405,687.0
194.0135,787.0
194.0865,707.0
194.1595,828.0
194.2325,710.0
194.3055,767.0
194.3785,707.0
194.4515,805.0
194.5246,728.0
194.5975,793.0
194.6705,709.0
194.7435,757.0
194.8165,642.0
194.8895,788.0
194.9625,710.0
195.0355,774.0
195.1085,730.0
195.1815,781.0
195.2544,702.0
195.3274,781.0
195.4004,713.0
195.4734,797.0
195.5463,698.0
195.6193,781.0
195.6923,764.0
195.7652,748.0
195.8382,738.0
195.9111,807.0
195.9841,732.0
196.057,812.0
196.13,744.0
196.2029,793.0
196.2759,687.0
196.3488,790.0
196.4218,736.0
196.4947,806.0
196.5676,764.0
196.6406,815.0
196.7135,685.0
196.7864,808.0
196.8593,715.0
196.9323,776.0
197.0052,751.0
197.0781,760.0
197.151,680.0
197.2239,771.0
197.2969,710.0
197.3697,777.0
197.4427,676.0
197.5156,756.0
197.5885,731.0
197.6614,789.0
197.7343,696.0
197.8072,810.0
197.88,696.0
197.9529,781.0
198.0258,678.0
198.0987,826.0
198.1716,717.0
198.2445,740.0
198.3173,716.0
198.3902,783.0
198.4631,691.0
198.5359,794.0
198.6088,636.0
198.6817,760.0
198.7545,731.0
198.8274,743.0
198.9003,733.0
198.9731,786.0
199.046,732.0
199.1188,765.0
199.1917,729.0
199.2645,798.0
199.3373,703.0
199.4102,762.0
199.483,726.0
199.5559,746.0
199.6287,719.0
199.7015,769.0
199.7744,735.0
199.8472,749.0
199.92,689.0
199.9928,761.0
200.0656,692.0
200.1385,785.0
200.2113,692.0
200.2841,784.0
200.3569,694.0
200.4297,760.0
200.5025,714.0
200.5753,758.0
200.6481,664.0
200.7209,763.0
200.7937,740.0
200.8665,713.0
200.9393,673.0
201.0121,772.0
201.0848,663.0
201.1576,806.0
201.2304,646.0
201.3032,772.0
201.3759,742.0
201.4487,745.0
201.5215,719.0
201.5943,761.0
201.667,714.0
201.7398,775.0
201.8125,670.0
201.8853,815.0
201.958,680.0
202.0308,811.0
202.1035,701.0
202.1763,819.0
202.249,735.0
202.3218,782.0
202.3945,685.0
202.4673,782.0
202.54,701.0
202.6127,779.0
202.6855,685.0
202.7582,804.0
202.8309,665.0
202.9036,752.0
202.9764,663.0
203.0491,744.0
203.1218,700.0
203.1945,808.0
203.2672,676.0
203.3399,787.0
203.4126,688.0
203.4853,770.0
203.558,716.0
203.6307,778.0
203.7034,729.0
203.7761,760.0
203.8488,739.0
203.9215,820.0
203.9942,709.0
204.0669,778.0
204.1395,688.0
204.2122,753.0
204.2849,700.0
204.3576,810.0
204.4302,705.0
204.5029,798.0
204.5756,732.0
204.6482,778.0
204.7209,683.0
204.7935,796.0
204.8662,679.0
204.9389,792.0
205.0115,695.0
205.0842,793.0
205.1568,716.0
205.2294,741.0
205.3021,708.0
205.3747,747.0
205.4474,714.0
205.52,782.0
205.5926,666.0
205.6653,798.0
205.7379,699.0
205.8105,763.0
205.8831,721.0
205.9557,745.0
206.0284,715.0
206.101,781.0
206.1736,701.0
206.2462,812.0
206.3188,706.0
206.3914,755.0
206.464,694.0
206.5366,796.0
206.6092,684.0
206.6818,789.0
206.7544,743.0
206.827,785.0
206.8996,682.0
206.9721,744.0
207.0447,704.0
207.1173,773.0
207.1899,722.0
207.2625,779.0
207.335,698.0
207.4076,794.0
207.4802,720.0
207.5527,777.0
207.6253,715.0
207.6978,791.0
207.7704,711.0
207.843,796.0
207.9155,692.0
207.9881,781.0
208.0606,681.0
208.1331,813.0
208.2057,720.0
208.2782,776.0
208.3508,760.0
208.4233,794.0
208.4958,728.0
208.5684,828.0
208.6409,706.0
208.7134,784.0
208.7859,721.0
208.8584,756.0
208.931,720.0
209.0035,787.0
209.076,696.0
209.1485,816.0
209.221,690.0
209.2935,748.0
209.366,717.0
209.4385,804.0
209.511,680.0
209.5835,793.0
209.656,718.0
209.7285,794.0
209.801,698.0
209.8735,802.0
209.9459,742.0
210.0184,785.0
210.0909,707.0
210.1634,771.0
210.2358,727.0
210.3083,751.0
210.3808,686.0
210.4532,733.0
210.5257,711.0
210.5982,793.0
210.6706,715.0
210.7431,779.0
210.8155,746.0
210.888,731.0
210.9604,686.0
211.0329,765.0
211.1053,683.0
211.1777,739.0
211.2502,713.0
211.3226,785.0
211.3951,692.0
211.4675,795.0
211.5399,699.0
211.6123,784.0
211.6847,714.0
211.7572,766.0
211.8296,701.0
211.902,823.0
211.9744,690.0
212.0468,753.0
212.1192,687.0
212.1917,772.0
212.264,741.0
212.3364,759.0
212.4088,692.0
212.4812,807.0
212.5536,706.0
212.626,776.0
212.6984,719.0
212.7708,750.0
212.8432,707.0
212.9155,789.0
212.9879,676.0
213.0603,801.0
213.1326,717.0
213.205,779.0
213.2774,686.0
213.3498,794.0
213.4221,722.0
213.4945,774.0
213.5668,699.0
213.6392,771.0
213.7115,743.0
213.7839,801.0
213.8562,643.0
213.9286,727.0
214.0009,715.0
214.0732,761.0
214.1456,714.0
214.2179,787.0
214.2903,723.0
214.3626,799.0
214.4349,704.0
214.5072,757.0
214.5796,709.0
214.6519,777.0
214.7242,795.0
214.7965,808.0
214.8688,728.0
214.9411,744.0
215.0134,710.0
215.0857,815.0
215.158,718.0
215.2303,802.0
215.3026,754.0
215.3749,793.0
215.4472,739.0
215.5195,791.0
215.5918,697.0
215.6641,797.0
215.7363,730.0
215.8086,795.0
215.8809,689.0
215.9532,786.0
216.0254,720.0
216.0977,769.0
216.17,713.0
216.2422,802.0
216.3145,721.0
216.3867,846.0
216.459,718.0
216.5313,780.0
216.6035,705.0
216.6758,772.0
216.748,725.0
216.8202,775.0
216.8925,710.0
216.9647,768.0
217.037,734.0
217.1092,806.0
217.1814,691.0
217.2536,793.0
217.3259,718.0
217.3981,833.0
217.4703,711.0
217.5425,771.0
217.6147,720.0
217.687,855.0
217.7592,764.0
217.8314,809.0
217.9035,743.0
217.9758,796.0
218.048,751.0
218.1201,758.0
218.1924,740.0
218.2645,833.0
218.3367,746.0
218.4089,797.0
218.4811,737.0
218.5533,818.0
218.6255,686.0
218.6976,811.0
218.7698,764.0
218.842,804.0
218.9142,727.0
218.9863,797.0
219.0585,737.0
219.1306,814.0
219.2028,718.0
219.2749,815.0
219.3471,736.0
219.4193,810.0
219.4914,735.0
219.5636,827.0
219.6357,765.0
219.7078,798.0
219.78,743.0
219.8521,853.0
219.9242,735.0
219.9964,830.0
220.0685,759.0
220.1406,787.0
220.2128,792.0
220.2849,789.0
220.357,785.0
220.4291,841.0
220.5012,723.0
220.5733,826.0
220.6454,734.0
220.7175,850.0
220.7896,804.0
220.8617,833.0
220.9338,741.0
221.0059,831.0
221.078,795.0
221.1501,816.0
221.2222,744.0
221.2943,834.0
221.3663,723.0
221.4384,847.0
221.5105,774.0
221.5826,802.0
221.6546,757.0
221.7267,823.0
221.7988,749.0
221.8708,873.0
221.9429,725.0
222.015,826.0
222.087,765.0
222.1591,768.0
222.2311,812.0
222.3032,842.0
222.3752,741.0
222.4473,860.0
222.5193,756.0
222.5913,848.0
222.6634,725.0
222.7354,802.0
222.8074,732.0
222.8795,842.0
222.9515,740.0
223.0235,796.0
223.0955,723.0
223.1675,814.0
223.2395,781.0
223.3116,842.0
223.3836,736.0
223.4556,823.0
223.5276,781.0
223.5996,796.0
223.6716,771.0
223.7436,802.0
223.8156,717.0
223.8876,808.0
223.9595,798.0
224.0315,831.0
224.1035,777.0
224.1755,834.0
224.2475,782.0
224.3195,849.0
224.3914,775.0
224.4634,872.0
224.5354,749.0
224.6073,807.0
224.6793,786.0
224.7512,841.0
224.8232,786.0
224.8952,858.0
224.9671,761.0
225.0391,801.0
225.111,796.0
225.1829,855.0
225.2549,771.0
225.3268,848.0
225.3988,766.0
225.4707,884.0
225.5426,795.0
225.6146,913.0
225.6865,794.0
225.7584,911.0
225.8303,794.0
225.9022,843.0
225.9742,822.0
226.0461,877.0
226.118,787.0
226.1899,883.0
226.2618,801.0
226.3337,891.0
226.4056,782.0
226.4775,867.0
226.5494,803.0
226.6213,852.0
226.6932,797.0
226.7651,841.0
226.8369,781.0
226.9088,887.0
226.9807,806.0
227.0526,880.0
227.1245,756.0
227.1963,892.0
227.2682,745.0
227.3401,855.0
227.4119,776.0
227.4838,846.0
227.5556,774.0
227.6275,824.0
227.6993,835.0
227.7712,838.0
227.8431,783.0
227.9149,831.0
227.9867,794.0
228.0586,805.0
228.1304,735.0
228.2023,885.0
228.2741,789.0
228.3459,849.0
228.4177,782.0
228.4896,825.0
228.5614,780.0
228.6332,858.0
228.705,792.0
228.7768,913.0
228.8486,838.0
228.9205,880.0
228.9923,811.0
229.0641,920.0
229.1359,838.0
229.2077,883.0
229.2794,874.0
229.3513,1007.0
229.423,964.0
229.4948,1195.0
229.5666,1219.0
229.6384,1373.0
229.7102,1363.0
229.782,1196.0
229.8537,1023.0
229.9255,905.0
229.9973,840.0
230.069,879.0
230.1408,750.0
230.2126,891.0
230.2843,750.0
230.3561,834.0
230.4278,735.0
230.4996,807.0
230.5713,737.0
230.6431,861.0
230.7148,777.0
230.7866,835.0
230.8583,765.0
230.93,802.0
231.0018,812.0
231.0735,838.0
231.1452,735.0
231.2169,814.0
231.2887,711.0
231.3604,868.0
231.4321,777.0
231.5038,809.0
231.5755,779.0
231.6472,811.0
231.7189,756.0
231.7906,844.0
231.8624,742.0
231.9341,859.0
232.0057,743.0
232.0774,822.0
232.1491,780.0
232.2208,849.0
232.2925,757.0
232.3642,833.0
232.4359,787.0
232.5075,904.0
232.5792,788.0
232.6509,888.0
232.7225,794.0
232.7942,857.0
232.8659,730.0
232.9375,804.0
233.0092,760.0
233.0809,833.0
233.1525,788.0
233.2242,881.0
233.2958,802.0
233.3675,820.0
233.4391,738.0
233.5107,812.0
233.5824,748.0
233.654,847.0
233.7256,788.0
233.7973,825.0
233.8689,768.0
233.9405,830.0
234.0121,777.0
234.0838,822.0
234.1554,774.0
234.227,844.0
234.2986,701.0
234.3702,846.0
234.4418,737.0
234.5134,821.0
234.585,770.0
234.6566,836.0
234.7282,719.0
234.7998,822.0
234.8714,756.0
234.943,863.0
235.0146,732.0
235.0862,849.0
235.1577,803.0
235.2293,822.0
235.3009,775.0
235.3725,858.0
235.444,792.0
235.5156,885.0
235.5872,731.0
235.6587,845.0
235.7303,791.0
235.8018,818.0
235.8734,768.0
235.9449,851.0
236.0165,766.0
236.088,835.0
236.1596,803.0
236.2311,866.0
236.3026,785.0
236.3742,843.0
236.4457,775.0
236.5172,827.0
236.5887,765.0
236.6603,806.0
236.7318,783.0
236.8033,873.0
236.8748,737.0
236.9464,874.0
237.0179,749.0
237.0894,853.0
237.1609,754.0
237.2324,782.0
237.3039,773.0
237.3754,826.0
237.4469,774.0
237.5184,895.0
237.5898,759.0
237.6613,860.0
237.7328,819.0
237.8043,831.0
237.8758,793.0
237.9472,843.0
238.0187,758.0
238.0902,877.0
238.1617,793.0
238.2331,878.0
238.3046,803.0
238.376,879.0
238.4475,792.0
238.519,806.0
238.5904,807.0
238.6618,855.0
238.7333,791.0
238.8047,888.0
238.8762,779.0
238.9476,859.0
239.0191,795.0
239.0905,869.0
239.1619,750.0
239.2334,901.0
239.3048,767.0
239.3762,939.0
239.4476,778.0
239.519,843.0
239.5904,846.0
239.6619,879.0
239.7333,805.0
239.8047,883.0
239.8761,809.0
239.9475,873.0
240.0189,769.0
240.0903,850.0
240.1617,815.0
240.233,912.0
240.3044,770.0
240.3758,852.0
240.4472,779.0
240.5186,887.0
240.59,772.0
240.6613,873.0
240.7327,786.0
240.8041,877.0
240.8754,817.0
240.9468,842.0
241.0181,768.0
241.0895,851.0
241.1609,798.0
241.2322,922.0
241.3036,813.0
241.3749,866.0
241.4462,821.0
241.5176,903.0
241.5889,817.0
241.6602,896.0
241.7316,789.0
241.8029,902.0
241.8743,771.0
241.9456,864.0
242.0169,768.0
242.0882,842.0
242.1595,839.0
242.2309,837.0
242.3022,806.0
242.3735,858.0
242.4448,799.0
242.5161,835.0
242.5874,842.0
242.6587,869.0
242.73,831.0
242.8013,845.0
242.8726,801.0
242.9438,859.0
243.0151,836.0
243.0864,845.0
243.1577,752.0
243.229,898.0
243.3002,817.0
243.3715,868.0
243.4428,796.0
243.5141,846.0
243.5853,817.0
243.6566,870.0
243.7278,772.0
243.7991,906.0
243.8703,787.0
243.9416,890.0
244.0128,829.0
244.0841,858.0
244.1553,807.0
244.2266,901.0
244.2978,751.0
244.369,900.0
244.4402,767.0
244.5115,843.0
244.5827,798.0
244.6539,875.0
244.7251,816.0
244.7964,821.0
244.8676,815.0
244.9388,883.0
245.01,805.0
245.0812,852.0
245.1524,786.0
245.2236,849.0
245.2948,837.0
245.366,892.0
245.4372,790.0
245.5084,881.0
245.5796,792.0
245.6507,842.0
245.7219,782.0
245.7931,871.0
245.8643,746.0
245.9355,860.0
246.0066,769.0
246.0778,851.0
246.149,753.0
246.2201,851.0
246.2913,772.0
246.3624,832.0
246.4336,771.0
246.5047,844.0
246.5759,739.0
246.647,824.0
246.7182,750.0
246.7893,851.0
246.8605,766.0
246.9316,877.0
247.0027,740.0
247.0739,843.0
247.145,763.0
247.2161,835.0
247.2872,768.0
247.3584,848.0
247.4295,815.0
247.5006,929.0
247.5717,841.0
247.6428,974.0
247.7139,994.0
247.785,1149.0
247.8561,1292.0
247.9272,1450.0
247.9983,1263.0
248.0694,1143.0
248.1405,948.0
248.2116,980.0
248.2827,873.0
248.3537,911.0
248.4248,797.0
248.4959,868.0
248.5669,788.0
248.638,886.0
248.7091,789.0
248.7802,880.0
248.8512,788.0
248.9223,900.0
248.9933,803.0
249.0644,826.0
249.1354,806.0
249.2065,842.0
249.2775,792.0
249.3486,879.0
249.4196,785.0
249.4906,843.0
249.5617,757.0
249.6327,824.0
249.7037,761.0
249.7747,880.0
249.8458,809.0
249.9168,876.0
249.9878,778.0
250.0588,894.0
250.1298,804.0
250.2009,872.0
250.2719,822.0
250.3429,883.0
250.4138,793.0
250.4849,894.0
250.5558,820.0
250.6268,881.0
250.6978,845.0
250.7688,942.0
250.8398,885.0
250.9108,994.0
250.9818,948.0
251.0527,1036.0
251.1237,989.0
251.1947,1110.0
251.2657,985.0
251.3366,942.0
251.4076,842.0
251.4785,874.0
251.5495,833.0
251.6205,884.0
251.6914,799.0
251.7623,925.0
251.8333,835.0
251.9042,832.0
251.9752,810.0
252.0461,879.0
252.1171,752.0
252.188,823.0
252.2589,756.0
252.3298,869.0
252.4008,795.0
252.4717,836.0
252.5426,753.0
252.6135,870.0
252.6844,780.0
252.7553,857.0
252.8262,770.0
252.8971,828.0
252.9681,791.0
253.039,872.0
253.1098,760.0
253.1808,853.0
253.2516,742.0
253.3225,843.0
253.3934,780.0
253.4643,848.0
253.5352,776.0
253.606,819.0
253.6769,783.0
253.7478,830.0
253.8187,864.0
253.8895,870.0
253.9604,739.0
254.0312,831.0
254.1021,755.0
254.173,870.0
254.2438,775.0
254.3147,863.0
254.3855,759.0
254.4563,831.0
254.5272,765.0
254.598,885.0
254.6689,783.0
254.7397,873.0
254.8105,781.0
254.8813,808.0
254.9522,798.0
255.023,821.0
255.0938,748.0
255.1646,860.0
255.2354,772.0
255.3062,885.0
255.3771,716.0
255.4479,850.0
255.5187,786.0
255.5894,832.0
255.6603,794.0
255.731,858.0
255.8018,791.0
255.8726,895.0
255.9434,774.0
256.0142,851.0
256.085,757.0
256.1558,873.0
256.2265,767.0
256.2973,831.0
256.3681,803.0
256.4388,904.0
256.5096,728.0
256.5804,875.0
256.6511,775.0
256.7219,905.0
256.7926,774.0
256.8634,854.0
256.9341,819.0
257.0049,861.0
257.0756,820.0
257.1463,863.0
257.2171,791.0
257.2878,903.0
257.3585,784.0
257.4292,826.0
257.5,739.0
257.5707,819.0
257.6414,761.0
257.7122,816.0
257.7828,739.0
257.8535,841.0
257.9243,789.0
257.995,884.0
258.0657,796.0
258.1364,799.0
258.2071,752.0
258.2777,822.0
258.3484,758.0
258.4191,866.0
258.4898,749.0
258.5605,848.0
258.6312,745.0
258.7018,851.0
258.7725,761.0
258.8432,772.0
258.9139,756.0
258.9845,798.0
259.0552,731.0
259.1259,836.0
259.1965,736.0
259.2672,812.0
259.3378,795.0
259.4085,803.0
259.4791,750.0
259.5497,780.0
259.6204,710.0
259.691,825.0
259.7617,763.0
259.8323,849.0
259.9029,694.0
259.9735,809.0
260.0442,724.0
260.1147,789.0
260.1854,760.0
260.256,857.0
260.3267,722.0
260.3972,842.0
260.4678,716.0
260.5384,852.0
260.6091,764.0
260.6796,827.0
260.7502,717.0
260.8208,860.0
260.8914,728.0
260.962,824.0
261.0326,785.0
261.1032,812.0
261.1737,766.0
261.2444,848.0
261.3149,796.0
261.3854,840.0
261.456,748.0
261.5266,877.0
261.5971,774.0
261.6677,848.0
261.7383,762.0
261.8088,850.0
261.8794,752.0
261.9499,845.0
262.0205,794.0
262.091,841.0
262.1615,761.0
262.2321,872.0
262.3026,838.0
262.3731,879.0
262.4437,756.0
262.5142,846.0
262.5847,802.0
262.6552,831.0
262.7257,773.0
262.7962,838.0
262.8668,743.0
262.9373,849.0
263.0078,779.0
263.0783,846.0
263.1488,821.0
263.2193,847.0
263.2898,768.0
263.3603,883.0
263.4307,807.0
263.5012,884.0
263.5717,791.0
263.6422,834.0
263.7127,799.0
263.7831,881.0
263.8536,776.0
263.9241,917.0
263.9945,791.0
264.065,899.0
264.1354,762.0
264.2059,876.0
264.2764,784.0
264.3468,851.0
264.4173,755.0
264.4877,883.0
264.5581,778.0
264.6286,854.0
264.699,783.0
264.7694,843.0
264.8399,769.0
264.9103,833.0
264.9807,787.0
265.0511,843.0
265.1216,775.0
265.192,894.0
265.2625,732.0
265.3328,825.0
265.4032,757.0
265.4736,841.0
265.5441,769.0
265.6144,816.0
265.6848,736.0
265.7552,804.0
265.8256,724.0
265.896,838.0
265.9664,724.0
266.0368,856.0
266.1071,730.0
266.1775,830.0
266.2479,767.0
266.3183,806.0
266.3886,752.0
266.459,849.0
266.5294,779.0
266.5998,845.0
266.6701,749.0
266.7404,858.0
266.8108,752.0
266.8812,817.0
266.9515,744.0
267.0219,862.0
267.0922,739.0
267.1625,834.0
267.2328,806.0
267.3032,814.0
267.3735,699.0
267.4438,805.0
267.5142,747.0
267.5845,827.0
267.6548,783.0
267.7251,849.0
267.7954,720.0
267.8657,775.0
267.936,757.0
268.0063,813.0
268.0766,742.0
268.1469,838.0
268.2172,759.0
268.2875,790.0
268.3578,738.0
268.4281,803.0
268.4984,729.0
268.5686,805.0
268.6389,765.0
268.7092,825.0
268.7794,755.0
268.8498,802.0
268.92,718.0
268.9902,832.0
269.0605,766.0
269.1308,803.0
269.201,737.0
269.2713,813.0
269.3415,724.0
269.4118,815.0
269.482,771.0
269.5523,846.0
269.6225,730.0
269.6927,836.0
269.7629,717.0
269.8332,795.0
269.9034,711.0
269.9736,827.0
270.0439,732.0
270.114,824.0
270.1843,753.0
270.2545,791.0
270.3247,781.0
270.3949,768.0
270.4651,780.0
270.5353,840.0
270.6055,755.0
270.6757,830.0
270.7459,750.0
270.8161,876.0
270.8863,736.0
270.9564,853.0
271.0266,797.0
271.0968,805.0
271.167,750.0
271.2371,852.0
271.3073,788.0
271.3775,854.0
271.4476,724.0
271.5178,829.0
271.588,804.0
271.6581,812.0
271.7282,769.0
271.7984,848.0
271.8685,766.0
271.9387,838.0
272.0088,764.0
272.0789,834.0
272.1491,796.0
272.2192,869.0
272.2893,809.0
272.3595,856.0
272.4296,781.0
272.4997,844.0
272.5698,778.0
272.64,882.0
272.7101,796.0
272.7802,834.0
272.8503,762.0
272.9204,847.0
272.9904,755.0
273.0605,898.0
273.1306,841.0
273.2007,879.0
273.2708,763.0
273.3409,855.0
273.411,797.0
273.481,816.0
273.5511,803.0
273.6212,863.0
273.6913,805.0
273.7614,874.0
273.8314,812.0
273.9015,899.0
273.9715,811.0
274.0416,870.0
274.1116,789.0
274.1817,860.0
274.2517,827.0
274.3217,895.0
274.3918,811.0
274.4619,928.0
274.5319,794.0
274.602,867.0
274.6719,841.0
274.742,887.0
274.812,858.0
274.882,893.0
274.952,801.0
275.0221,900.0
275.0921,807.0
275.1621,869.0
275.2321,838.0
275.3021,898.0
275.3721,804.0
275.4421,861.0
275.5121,762.0
275.5821,897.0
275.6521,797.0
275.722,888.0
275.792,814.0
275.862,853.0
275.932,780.0
276.002,836.0
276.0719,770.0
276.1418,879.0
276.2119,814.0
276.2818,902.0
276.3517,794.0
276.4218,887.0
276.4917,809.0
276.5616,825.0
276.6316,813.0
276.7015,915.0
276.7715,789.0
276.8414,822.0
276.9113,742.0
276.9813,872.0
277.0512,743.0
277.1211,870.0
277.191,823.0
277.261,853.0
277.3309,780.0
277.4008,887.0
277.4707,807.0
277.5406,873.0
277.6105,788.0
277.6804,820.0
277.7503,785.0
277.8202,843.0
277.8901,806.0
277.96,882.0
278.0299,748.0
278.0998,876.0
278.1697,805.0
278.2396,853.0
278.3094,771.0
278.3793,868.0
278.4492,790.0
278.519,830.0
278.5889,786.0
278.6588,891.0
278.7286,768.0
278.7985,837.0
278.8683,813.0
278.9382,899.0
279.0081,789.0
279.0779,858.0
279.1477,764.0
279.2176,832.0
279.2874,791.0
279.3572,856.0
279.4271,817.0
279.4969,848.0
279.5667,804.0
279.6365,873.0
279.7063,764.0
279.7762,886.0
279.846,816.0
279.9158,874.0
279.9856,796.0
280.0554,894.0
280.1252,793.0
280.195,870.0
280.2648,781.0
280.3346,900.0
280.4044,821.0
280.4742,916.0
280.544,815.0
280.6137,928.0
280.6835,804.0
280.7533,878.0
280.8231,842.0
280.8928,875.0
280.9626,790.0
281.0323,888.0
281.1021,807.0
281.1719,915.0
281.2416,883.0
281.3114,905.0
281.3811,846.0
281.4509,869.0
281.5206,765.0
281.5904,913.0
281.6601,804.0
281.7299,949.0
281.7996,824.0
281.8693,914.0
281.939,864.0
282.0088,890.0
282.0784,796.0
282.1482,922.0
282.2179,803.0
282.2876,914.0
282.3573,845.0
282.427,900.0
282.4967,839.0
282.5664,833.0
282.6361,815.0
282.7058,902.0
282.7755,828.0
282.8452,889.0
282.9149,850.0
282.9845,905.0
283.0542,803.0
283.1239,912.0
283.1936,814.0
283.2632,875.0
283.3329,798.0
283.4026,969.0
283.4722,842.0
283.5419,929.0
283.6115,869.0
283.6812,969.0
283.7508,894.0
283.8205,993.0
283.8901,844.0
283.9597,944.0
284.0294,862.0
284.099,927.0
284.1686,876.0
284.2383,974.0
284.3079,870.0
284.3775,877.0
284.4471,823.0
284.5168,918.0
284.5864,813.0
284.656,885.0
284.7256,840.0
284.7952,851.0
284.8648,829.0
284.9344,920.0
285.004,814.0
285.0736,920.0
285.1432,787.0
285.2128,872.0
285.2823,800.0
285.3519,939.0
285.4215,846.0
285.4911,881.0
285.5606,860.0
285.6302,868.0
285.6998,819.0
285.7693,883.0
285.8389,778.0
285.9084,866.0
285.978,782.0
286.0475,811.0
286.1171,803.0
286.1866,881.0
286.2562,821.0
286.3257,917.0
286.3952,799.0
286.4648,847.0
286.5343,798.0
286.6039,846.0
286.6733,784.0
286.7429,857.0
286.8124,763.0
286.8819,855.0
286.9514,793.0
287.0209,870.0
287.0904,756.0
287.1599,889.0
287.2294,833.0
287.299,872.0
287.3684,817.0
287.4379,858.0
287.5074,786.0
287.5769,874.0
287.6464,854.0
287.7159,896.0
287.7853,813.0
287.8548,873.0
287.9243,825.0
287.9937,853.0
288.0632,836.0
288.1327,886.0
288.2021,768.0
288.2716,856.0
288.341,786.0
288.4105,916.0
288.4799,759.0
288.5493,858.0
288.6188,752.0
288.6882,823.0
288.7577,800.0
288.8271,863.0
288.8965,763.0
288.9659,940.0
289.0354,769.0
289.1048,848.0
289.1742,783.0
289.2436,865.0
289.313,800.0
289.3824,900.0
289.4518,854.0
289.5212,879.0
289.5906,782.0
289.66,868.0
289.7294,798.0
289.7988,879.0
289.8682,823.0
289.9376,867.0
290.007,816.0
290.0764,895.0
290.1457,795.0
290.2151,883.0
290.2844,789.0
290.3538,904.0
290.4232,795.0
290.4925,867.0
290.5619,821.0
290.6312,888.0
290.7006,780.0
290.7699,963.0
290.8393,799.0
290.9086,912.0
290.978,880.0
291.0473,896.0
291.1166,813.0
291.1859,905.0
291.2553,798.0
291.3246,886.0
291.3939,816.0
291.4632,898.0
291.5325,808.0
291.6018,923.0
291.6712,831.0
291.7405,936.0
291.8098,785.0
291.8791,884.0
291.9484,807.0
292.0176,897.0
292.0869,830.0
292.1562,888.0
292.2255,836.0
292.2948,893.0
292.3641,820.0
292.4334,943.0
292.5026,844.0
292.5719,928.0
292.6412,830.0
292.7104,914.0
292.7797,881.0
292.8489,932.0
292.9182,830.0
292.9875,891.0
293.0567,805.0
293.1259,928.0
293.1952,810.0
293.2644,919.0
293.3336,817.0
293.4029,900.0
293.4721,812.0
293.5413,875.0
293.6106,845.0
293.6798,888.0
293.749,814.0
293.8182,940.0
293.8875,835.0
293.9566,908.0
294.0259,858.0
294.0951,915.0
294.1642,854.0
294.2334,969.0
294.3026,782.0
294.3718,921.0
294.441,835.0
294.5102,909.0
294.5794,810.0
294.6485,905.0
294.7177,838.0
294.7869,905.0
294.8561,818.0
294.9253,949.0
294.9944,764.0
295.0636,925.0
295.1327,838.0
295.2019,915.0
295.271,826.0
295.3402,862.0
295.4093,852.0
295.4785,941.0
295.5476,805.0
295.6168,931.0
295.6859,825.0
295.755,928.0
295.8241,818.0
295.8932,920.0
295.9623,849.0
296.0315,944.0
296.1006,836.0
296.1697,917.0
296.2388,808.0
296.3079,920.0
296.377,812.0
296.4461,932.0
296.5152,826.0
296.5843,912.0
296.6534,836.0
296.7225,884.0
296.7916,820.0
296.8606,927.0
296.9297,852.0
296.9988,864.0
297.0679,808.0
297.137,936.0
297.206,831.0
297.2751,926.0
297.3441,826.0
297.4132,898.0
297.4823,826.0
297.5513,901.0
297.6204,843.0
297.6894,863.0
297.7584,827.0
297.8275,935.0
297.8965,806.0
297.9655,911.0
298.0346,853.0
298.1036,923.0
298.1726,847.0
298.2417,913.0
298.3106,875.0
298.3797,920.0
298.4487,851.0
298.5177,915.0
298.5867,848.0
298.6557,923.0
298.7247,856.0
298.7937,937.0
298.8627,865.0
298.9317,934.0
299.0007,823.0
299.0696,896.0
299.1386,834.0
299.2076,894.0
299.2766,877.0
299.3456,899.0
299.4145,842.0
299.4835,899.0
299.5524,869.0
299.6214,914.0
299.6903,835.0
299.7593,935.0
299.8282,843.0
299.8972,904.0
299.9661,877.0
300.0351,931.0
300.104,819.0
300.173,947.0
300.2419,828.0
300.3108,942.0
300.3797,813.0
300.4487,941.0
300.5176,837.0
300.5865,918.0
300.6554,823.0
300.7243,934.0
300.7932,810.0
300.8621,934.0
300.931,879.0
300.9999,937.0
301.0688,829.0
301.1377,947.0
301.2066,867.0
301.2755,941.0
301.3444,814.0
301.4132,892.0
301.4821,825.0
301.551,927.0
301.6199,896.0
301.6887,969.0
301.7576,848.0
301.8265,922.0
301.8953,889.0
301.9642,934.0
302.033,856.0
302.1019,928.0
302.1707,881.0
302.2396,916.0
302.3084,835.0
302.3772,906.0
302.4461,862.0
302.5149,924.0
302.5837,828.0
302.6526,887.0
302.7214,821.0
302.7902,955.0
302.859,810.0
302.9278,920.0
302.9966,895.0
303.0654,982.0
303.1342,851.0
303.203,911.0
303.2718,852.0
303.3406,965.0
303.4094,871.0
303.4781,913.0
303.547,877.0
303.6158,942.0
303.6845,868.0
303.7533,939.0
303.8221,884.0
303.8908,952.0
303.9596,829.0
304.0284,940.0
304.0971,917.0
304.1659,918.0
304.2346,830.0
304.3034,892.0
304.3721,854.0
304.4409,914.0
304.5096,835.0
304.5784,899.0
304.6471,836.0
304.7158,911.0
304.7845,877.0
304.8533,949.0
304.922,811.0
304.9907,886.0
305.0594,871.0
305.1281,954.0
305.1969,870.0
305.2656,913.0
305.3343,861.0
305.403,907.0
305.4717,853.0
305.5403,939.0
305.609,822.0
305.6778,920.0
305.7464,809.0
305.8151,966.0
305.8838,823.0
305.9525,919.0
306.0211,896.0
306.0898,902.0
306.1585,805.0
306.2271,947.0
306.2958,857.0
306.3645,930.0
306.4331,835.0
306.5017,916.0
306.5704,885.0
306.6391,966.0
306.7077,831.0
306.7763,921.0
306.845,812.0
306.9136,926.0
306.9822,855.0
307.0508,937.0
307.1195,846.0
307.1881,926.0
307.2567,857.0
307.3253,927.0
307.3939,836.0
307.4625,953.0
307.5312,773.0
307.5998,966.0
307.6684,865.0
307.7369,900.0
307.8055,820.0
307.8741,960.0
307.9427,775.0
308.0113,938.0
308.0799,804.0
308.1484,898.0
308.217,832.0
308.2856,903.0
308.3542,825.0
308.4227,926.0
308.4913,829.0
308.5598,938.0
308.6284,839.0
308.6969,934.0
308.7655,843.0
308.834,914.0
308.9026,849.0
308.9711,875.0
309.0396,805.0
309.1082,941.0
309.1767,779.0
309.2452,922.0
309.3138,849.0
309.3823,914.0
309.4508,844.0
309.5193,917.0
309.5878,847.0
309.6563,926.0
309.7249,865.0
309.7933,904.0
309.8618,876.0
309.9303,925.0
309.9988,841.0
310.0673,940.0
310.1358,830.0
310.2043,892.0
310.2728,846.0
310.3412,906.0
310.4097,832.0
310.4781,935.0
310.5466,848.0
310.6151,907.0
310.6836,859.0
310.752,888.0
310.8205,811.0
310.8889,922.0
310.9574,837.0
311.0258,915.0
311.0943,810.0
311.1627,909.0
311.2311,827.0
311.2996,880.0
311.368,821.0
311.4364,887.0
311.5049,830.0
311.5733,911.0
311.6417,808.0
311.7101,858.0
311.7785,805.0
311.8469,931.0
311.9153,855.0
311.9837,902.0
312.0521,841.0
312.1205,920.0
312.1889,819.0
312.2573,863.0
312.3257,819.0
312.3941,898.0
312.4624,802.0
312.5308,835.0
312.5992,771.0
312.6675,907.0
312.7359,803.0
312.8043,881.0
312.8727,827.0
312.941,855.0
313.0093,837.0
313.0777,857.0
313.1461,804.0
313.2144,903.0
313.2827,781.0
313.3511,876.0
313.4194,806.0
313.4877,840.0
313.5561,773.0
313.6244,900.0
313.6927,794.0
313.761,841.0
313.8294,744.0
313.8977,854.0
313.966,742.0
314.0343,891.0
314.1026,766.0
314.1709,838.0
314.2392,799.0
314.3075,857.0
314.3758,799.0
314.4441,883.0
314.5124,767.0
314.5806,901.0
314.6489,832.0
314.7172,913.0
314.7855,807.0
314.8537,887.0
314.922,810.0
314.9903,874.0
315.0585,766.0
315.1268,881.0
315.195,801.0
315.2633,899.0
315.3315,887.0
315.3998,879.0
315.468,808.0
315.5362,896.0
315.6045,811.0
315.6727,883.0
315.7409,807.0
315.8092,916.0
315.8774,806.0
315.9456,915.0
316.0138,801.0
316.082,897.0
316.1502,780.0
316.2184,909.0
316.2867,841.0
316.3549,924.0
316.423,864.0
316.4912,902.0
316.5594,850.0
316.6276,932.0
316.6958,840.0
316.764,958.0
316.8322,845.0
316.9003,933.0
316.9685,812.0
317.0367,948.0
317.1049,871.0
317.173,952.0
317.2411,924.0
317.3093,920.0
317.3774,842.0
317.4456,907.0
317.5137,822.0
317.5819,952.0
317.65,880.0
317.7182,931.0
317.7863,859.0
317.8545,939.0
317.9225,850.0
317.9907,932.0
318.0588,869.0
318.1269,971.0
318.195,889.0
318.2631,947.0
318.3312,866.0
318.3994,898.0
318.4675,809.0
318.5355,926.0
318.6036,857.0
318.6717,935.0
318.7398,839.0
318.8079,924.0
318.876,829.0
318.9441,1012.0
319.0121,881.0
319.0802,917.0
319.1483,908.0
319.2164,922.0
319.2844,840.0
319.3525,932.0
319.4205,858.0
319.4886,1000.0
319.5566,913.0
319.6247,930.0
319.6927,874.0
319.7608,937.0
319.8288,898.0
319.8968,952.0
319.9648,869.0
320.0329,983.0
320.1009,840.0
320.1689,941.0
320.237,838.0
320.305,906.0
320.373,833.0
320.441,976.0
320.509,850.0
320.577,975.0
320.645,895.0
320.713,948.0
320.781,842.0
320.849,903.0
320.917,851.0
320.985,951.0
321.0529,902.0
321.1209,959.0
321.1889,857.0
321.2568,935.0
321.3248,887.0
321.3928,909.0
321.4608,891.0
321.5287,910.0
321.5966,815.0
321.6646,931.0
321.7325,850.0
321.8005,965.0
321.8684,859.0
321.9364,925.0
322.0043,867.0
322.0722,949.0
322.1401,848.0
322.2081,913.0
322.276,878.0
322.344,935.0
322.4119,844.0
322.4797,918.0
322.5477,870.0
322.6156,903.0
322.6835,877.0
322.7514,946.0
322.8193,863.0
322.8871,923.0
322.955,855.0
323.0229,954.0
323.0908,821.0
323.1588,927.0
323.2266,815.0
323.2945,961.0
323.3623,883.0
323.4302,976.0
323.4981,829.0
323.5659,929.0
323.6338,858.0
323.7016,921.0
323.7695,872.0
323.8373,924.0
323.9052,890.0
323.973,947.0
324.0409,878.0
324.1087,960.0
324.1765,844.0
324.2444,975.0
324.3122,847.0
324.38,977.0
324.4479,854.0
324.5157,978.0
324.5834,861.0
324.6512,931.0
324.7191,926.0
324.7869,915.0
324.8547,895.0
324.9225,972.0
324.9903,879.0
325.058,993.0
325.1259,877.0
325.1936,955.0
325.2614,830.0
325.3292,969.0
325.397,888.0
325.4647,940.0
325.5325,897.0
325.6002,921.0
325.668,856.0
325.7358,958.0
325.8036,860.0
325.8713,934.0
325.939,882.0
326.0068,938.0
326.0745,875.0
326.1422,914.0
326.21,879.0
326.2777,1009.0
326.3455,811.0
326.4132,977.0
326.4809,907.0
326.5486,949.0
326.6164,874.0
326.6841,931.0
326.7518,864.0
326.8195,967.0
326.8872,832.0
326.9549,1001.0
327.0226,819.0
327.0903,958.0
327.158,879.0
327.2256,936.0
327.2933,878.0
327.361,1017.0
327.4287,851.0
327.4964,969.0
327.5641,922.0
327.6317,947.0
327.6994,838.0
327.767,997.0
327.8347,830.0
327.9023,957.0
327.97,893.0
328.0376,961.0
328.1053,868.0
328.1729,943.0
328.2406,902.0
328.3082,938.0
328.3759,868.0
328.4435,906.0
328.5111,871.0
328.5787,937.0
328.6463,901.0
328.7139,976.0
328.7816,851.0
328.8492,965.0
328.9168,812.0
328.9843,944.0
329.052,812.0
329.1196,931.0
329.1872,852.0
329.2548,920.0
329.3224,846.0
329.3899,900.0
329.4575,839.0
329.5251,928.0
329.5927,826.0
329.6602,905.0
329.7278,796.0
329.7953,901.0
329.8629,820.0
329.9305,959.0
329.998,834.0
330.0656,922.0
330.1331,836.0
330.2007,952.0
330.2682,813.0
330.3358,903.0
330.4033,819.0
330.4708,892.0
330.5383,834.0
330.6059,928.0
330.6734,847.0
330.7409,911.0
330.8084,830.0
330.876,939.0
330.9435,876.0
331.011,897.0
331.0784,777.0
331.1459,953.0
331.2134,835.0
331.2809,896.0
331.3484,846.0
331.4159,852.0
331.4834,800.0
331.5508,921.0
331.6183,804.0
331.6858,921.0
331.7533,864.0
331.8207,884.0
331.8882,880.0
331.9557,934.0
332.0231,846.0
332.0906,960.0
332.1581,868.0
332.2255,870.0
332.2929,829.0
332.3604,931.0
332.4278,868.0
332.4952,884.0
332.5627,829.0
332.6301,918.0
332.6975,805.0
332.7649,938.0
332.8323,824.0
332.8997,940.0
332.9672,831.0
333.0346,924.0
333.102,895.0
333.1694,938.0
333.2368,862.0
333.3042,899.0
333.3716,846.0
333.439,921.0
333.5063,853.0
333.5737,955.0
333.6411,837.0
333.7085,943.0
333.7758,850.0
333.8432,932.0
333.9106,861.0
333.9779,962.0
334.0453,801.0
334.1126,969.0
334.18,878.0
334.2473,928.0
334.3147,865.0
334.382,958.0
334.4494,842.0
334.5167,943.0
334.584,868.0
334.6514,930.0
334.7187,845.0
334.786,943.0
334.8533,839.0
334.9206,916.0
334.9879,833.0
335.0553,910.0
335.1226,791.0
335.1899,933.0
335.2572,838.0
335.3245,930.0
335.3918,861.0
335.459,955.0
335.5263,838.0
335.5936,883.0
335.6609,823.0
335.7282,942.0
335.7954,859.0
335.8627,967.0
335.93,869.0
335.9973,901.0
336.0645,829.0
336.1318,911.0
336.199,793.0
336.2662,948.0
336.3335,822.0
336.4008,930.0
336.468,805.0
336.5352,934.0
336.6024,852.0
336.6697,931.0
336.7369,867.0
336.8041,902.0
336.8714,815.0
336.9386,898.0
337.0058,823.0
337.073,921.0
337.1402,839.0
337.2074,927.0
337.2746,819.0
337.3418,883.0
337.409,836.0
337.4762,893.0
337.5434,845.0
337.6106,933.0
337.6777,779.0
337.7449,950.0
337.8121,818.0
337.8792,892.0
337.9464,830.0
338.0135,879.0
338.0807,809.0
338.1479,905.0
338.2151,842.0
338.2822,861.0
338.3493,815.0
338.4165,918.0
338.4836,814.0
338.5508,929.0
338.6179,794.0
338.6851,879.0
338.7521,801.0
338.8193,931.0
338.8864,836.0
338.9535,925.0
339.0206,845.0
339.0878,902.0
339.1548,853.0
339.222,924.0
339.289,828.0
339.3561,908.0
339.4233,819.0
339.4904,926.0
339.5574,810.0
339.6245,908.0
339.6916,834.0
339.7587,907.0
339.8257,805.0
339.8929,895.0
339.9599,836.0
340.0269,889.0
340.094,811.0
340.1611,894.0
340.2281,771.0
340.2952,886.0
340.3622,792.0
340.4293,851.0
340.4963,785.0
340.5633,893.0
340.6304,819.0
340.6974,890.0
340.7645,777.0
340.8315,882.0
340.8985,832.0
340.9655,881.0
341.0325,833.0
341.0995,904.0
341.1665,815.0
341.2335,902.0
341.3005,802.0
341.3675,914.0
341.4345,824.0
341.5015,863.0
341.5685,795.0
341.6355,929.0
341.7025,853.0
341.7694,914.0
341.8364,833.0
341.9034,923.0
341.9704,856.0
342.0373,914.0
342.1043,779.0
342.1712,920.0
342.2382,811.0
342.3051,894.0
342.3721,813.0
342.4391,927.0
342.506,820.0
342.5729,871.0
342.6398,825.0
342.7068,876.0
342.7737,773.0
342.8406,894.0
342.9076,833.0
342.9745,930.0
343.0414,810.0
343.1083,870.0
343.1752,805.0
343.2421,878.0
343.309,807.0
343.3759,901.0
343.4428,845.0
343.5097,928.0
343.5766,819.0
343.6434,863.0
343.7104,826.0
343.7772,906.0
343.8441,802.0
343.9109,911.0
343.9778,885.0
344.0447,909.0
344.1116,857.0
344.1784,927.0
344.2453,809.0
344.3121,944.0
344.3789,818.0
344.4458,952.0
344.5127,815.0
344.5795,992.0
344.6463,812.0
344.7131,915.0
344.78,830.0
344.8468,947.0
344.9136,836.0
344.9805,924.0
345.0473,829.0
345.1141,929.0
345.1809,833.0
345.2477,918.0
345.3145,834.0
345.3813,926.0
345.4481,836.0
345.5149,916.0
345.5816,809.0
345.6484,917.0
345.7152,835.0
345.782,946.0
345.8488,834.0
345.9155,962.0
345.9823,852.0
346.049,897.0
346.1158,807.0
346.1826,931.0
346.2493,857.0
346.3161,924.0
346.3828,852.0
346.4496,937.0
346.5163,845.0
346.5831,914.0
346.6498,814.0
346.7165,924.0
346.7832,820.0
346.85,916.0
346.9167,833.0
346.9834,917.0
347.0501,808.0
347.1168,926.0
347.1835,860.0
347.2502,924.0
347.3169,868.0
347.3836,906.0
347.4503,853.0
347.517,920.0
347.5837,886.0
347.6504,932.0
347.717,863.0
347.7837,956.0
347.8504,812.0
347.9171,923.0
347.9837,854.0
348.0504,961.0
348.1171,868.0
348.1837,894.0
348.2504,881.0
348.317,921.0
348.3837,858.0
348.4503,902.0
348.5169,847.0
348.5836,940.0
348.6502,846.0
348.7169,919.0
348.7835,873.0
348.8501,917.0
348.9167,846.0
348.9833,955.0
349.0499,871.0
349.1165,926.0
349.1832,840.0
349.2498,933.0
349.3163,871.0
349.3829,939.0
349.4495,857.0
349.5161,898.0
349.5827,868.0
349.6493,955.0
349.7159,823.0
349.7824,938.0
349.849,863.0
349.9156,936.0
349.9821,853.0
350.0487,945.0
350.1153,863.0
350.1818,927.0
350.2484,834.0
350.3149,948.0
350.3814,838.0
350.448,937.0
350.5146,845.0
350.5811,923.0
350.6476,868.0
350.7141,937.0
350.7807,890.0
350.8472,984.0
350.9137,831.0
350.9802,914.0
351.0467,872.0
351.1132,905.0
351.1797,826.0
351.2462,933.0
351.3127,843.0
351.3792,920.0
351.4457,816.0
351.5122,925.0
351.5787,860.0
351.6451,933.0
351.7116,856.0
351.7781,992.0
351.8446,898.0
351.911,976.0
351.9775,882.0
352.044,962.0
352.1104,874.0
352.1769,1003.0
352.2433,910.0
352.3098,963.0
352.3762,865.0
352.4427,935.0
352.5091,831.0
352.5755,953.0
352.642,879.0
352.7084,986.0
352.7748,893.0
352.8412,977.0
352.9077,906.0
352.9741,997.0
353.0405,887.0
353.1068,1014.0
353.1732,874.0
353.2396,1015.0
353.306,880.0
353.3724,951.0
353.4388,933.0
353.5052,987.0
353.5716,917.0
353.638,998.0
353.7043,891.0
353.7707,978.0
353.8371,881.0
353.9034,1002.0
353.9698,931.0
354.0362,975.0
354.1025,955.0
354.1689,978.0
354.2352,931.0
354.3016,985.0
354.3679,891.0
354.4342,1047.0
354.5005,925.0
354.5669,1015.0
354.6332,956.0
354.6996,1043.0
354.7659,925.0
354.8322,1018.0
354.8985,925.0
354.9648,1020.0
355.0311,945.0
355.0974,1036.0
355.1637,955.0
355.23,1000.0
355.2963,920.0
355.3625,962.0
355.4289,890.0
355.4952,1033.0
355.5614,886.0
355.6277,1030.0
355.694,935.0
355.7603,977.0
355.8265,922.0
355.8928,1007.0
355.959,903.0
356.0253,975.0
356.0916,896.0
356.1578,1013.0
356.224,957.0
356.2903,997.0
356.3565,929.0
356.4228,978.0
356.489,900.0
356.5552,1022.0
356.6214,884.0
356.6876,966.0
356.7539,915.0
356.8201,1018.0
356.8863,913.0
356.9525,970.0
357.0187,891.0
357.0849,979.0
357.1511,881.0
357.2173,956.0
357.2835,887.0
357.3497,959.0
357.4158,929.0
357.482,974.0
357.5482,892.0
357.6144,997.0
357.6805,937.0
357.7467,1026.0
357.8128,939.0
357.879,1000.0
357.9452,914.0
358.0114,1100.0
358.0775,1077.0
358.1436,1109.0
358.2097,1030.0
358.2759,1185.0
358.342,1140.0
358.4082,1278.0
358.4743,1134.0
358.5404,1177.0
358.6065,1060.0
358.6726,1068.0
358.7387,959.0
358.8049,1029.0
358.871,986.0
358.9371,1138.0
359.0032,964.0
359.0693,999.0
359.1353,808.0
359.2014,897.0
359.2676,857.0
359.3336,926.0
359.3997,803.0
359.4658,944.0
359.5318,866.0
359.5979,924.0
359.664,809.0
359.7301,891.0
359.7961,862.0
359.8622,967.0
359.9282,832.0
359.9943,934.0
360.0603,797.0
360.1264,905.0
360.1924,881.0
360.2585,918.0
360.3244,825.0
360.3905,890.0
360.4565,850.0
360.5225,926.0
360.5885,845.0
360.6546,918.0
360.7206,805.0
360.7866,933.0
360.8526,845.0
360.9185,894.0
360.9846,823.0
361.0506,892.0
361.1165,818.0
361.1825,898.0
361.2485,849.0
361.3145,945.0
361.3805,860.0
361.4465,911.0
361.5124,805.0
361.5784,922.0
361.6443,800.0
361.7103,916.0
361.7762,855.0
361.8422,1004.0
361.9082,843.0
361.9741,892.0
362.04,832.0
362.106,883.0
362.1719,816.0
362.2379,875.0
362.3038,824.0
362.3697,940.0
362.4356,805.0
362.5015,962.0
362.5675,855.0
362.6334,938.0
362.6993,878.0
362.7652,936.0
362.8311,817.0
362.8969,917.0
362.9629,775.0
363.0287,949.0
363.0947,840.0
363.1605,962.0
363.2264,822.0
363.2923,907.0
363.3582,840.0
363.424,896.0
363.4899,823.0
363.5557,911.0
363.6216,883.0
363.6874,924.0
363.7533,816.0
363.8191,911.0
363.885,821.0
363.9508,893.0
364.0167,780.0
364.0825,872.0
364.1483,827.0
364.2142,916.0
364.28,804.0
364.3458,924.0
364.4116,816.0
364.4774,911.0
364.5432,870.0
364.609,870.0
364.6748,832.0
364.7406,896.0
364.8065,837.0
364.8722,957.0
364.938,827.0
365.0038,900.0
365.0696,848.0
365.1354,944.0
365.2011,852.0
365.2669,955.0
365.3326,802.0
365.3984,930.0
365.4642,848.0
365.5299,934.0
365.5957,793.0
365.6614,947.0
365.7272,823.0
365.7929,928.0
365.8587,855.0
365.9244,964.0
365.9902,789.0
366.0559,917.0
366.1216,864.0
366.1873,937.0
366.253,808.0
366.3188,930.0
366.3845,840.0
366.4502,874.0
366.5159,834.0
366.5816,900.0
366.6473,843.0
366.713,888.0
366.7787,797.0
366.8444,893.0
366.91,836.0
366.9757,911.0
367.0414,808.0
367.1071,920.0
367.1727,814.0
367.2384,882.0
367.3041,819.0
367.3697,872.0
367.4354,794.0
367.501,853.0
367.5667,795.0
367.6323,899.0
367.698,818.0
367.7636,917.0
367.8292,842.0
367.8948,889.0
367.9605,771.0
368.0261,851.0
368.0918,766.0
368.1573,897.0
368.223,802.0
368.2885,925.0
368.3542,807.0
368.4198,885.0
368.4854,750.0
368.551,887.0
368.6165,734.0
368.6821,901.0
368.7477,780.0
368.8133,897.0
368.8789,835.0
368.9445,913.0
369.01,808.0
369.0756,858.0
369.1411,844.0
369.2067,837.0
369.2723,754.0
369.3379,880.0
369.4034,789.0
369.4689,850.0
369.5345,796.0
369.6,833.0
369.6656,746.0
369.7311,840.0
369.7966,781.0
369.8622,920.0
369.9277,812.0
369.9932,863.0
370.0587,776.0
370.1242,844.0
370.1897,792.0
370.2552,836.0
370.3207,801.0
370.3862,910.0
370.4517,798.0
370.5172,862.0
370.5827,802.0
370.6482,898.0
370.7136,779.0
370.7791,851.0
370.8446,819.0
370.9101,843.0
370.9756,763.0
371.041,879.0
371.1064,807.0
371.1719,895.0
371.2373,795.0
371.3028,893.0
371.3683,807.0
371.4337,921.0
371.4991,803.0
371.5646,907.0
371.63,816.0
371.6954,899.0
371.7608,814.0
371.8263,893.0
371.8917,849.0
371.9571,884.0
372.0225,775.0
372.0879,911.0
372.1533,818.0
372.2187,926.0
372.2841,794.0
372.3495,923.0
372.4149,827.0
372.4803,887.0
372.5457,839.0
372.611,923.0
372.6764,803.0
372.7418,881.0
372.8071,879.0
372.8725,917.0
372.9379,861.0
373.0032,927.0
373.0686,834.0
373.1339,935.0
373.1992,782.0
373.2646,938.0
373.3299,841.0
373.3953,933.0
373.4606,837.0
373.5259,937.0
373.5912,825.0
373.6566,850.0
373.7219,858.0
373.7872,898.0
373.8525,818.0
373.9178,942.0
373.9831,855.0
374.0484,923.0
374.1137,855.0
374.179,925.0
374.2443,863.0
374.3096,1009.0
374.3749,843.0
374.4401,903.0
374.5054,820.0
374.5706,905.0
374.636,850.0
374.7012,931.0
374.7665,865.0
374.8318,952.0
374.897,860.0
374.9622,903.0
375.0275,831.0
375.0927,944.0
375.158,876.0
375.2232,928.0
375.2885,843.0
375.3537,915.0
375.4189,842.0
375.4841,902.0
375.5493,854.0
375.6145,961.0
375.6797,863.0
375.745,977.0
375.8101,881.0
375.8754,907.0
375.9406,854.0
376.0057,949.0
376.071,850.0
376.1361,976.0
376.2013,895.0
376.2665,969.0
376.3317,916.0
376.3969,913.0
376.462,840.0
376.5272,963.0
376.5923,860.0
376.6575,960.0
376.7226,848.0
376.7878,964.0
376.8529,841.0
376.9181,994.0
376.9832,870.0
377.0483,948.0
377.1135,894.0
377.1786,948.0
377.2437,899.0
377.3089,939.0
377.374,884.0
377.4391,903.0
377.5042,854.0
377.5693,897.0
377.6344,889.0
377.6995,992.0
377.7646,935.0
377.8297,977.0
377.8948,906.0
377.9599,976.0
378.025,910.0
378.09,963.0
378.1551,888.0
378.2202,967.0
378.2852,882.0
378.3503,977.0
378.4154,873.0
378.4804,998.0
378.5455,915.0
378.6105,1013.0
378.6755,920.0
378.7406,970.0
378.8057,927.0
378.8707,1019.0
378.9357,874.0
379.0008,1018.0
379.0658,901.0
379.1308,1017.0
379.1958,929.0
379.2609,991.0
379.3259,913.0
379.3908,1040.0
379.4558,1012.0
379.5208,1030.0
379.5858,927.0
379.6509,998.0
379.7159,986.0
379.7808,982.0
379.8458,933.0
379.9108,1071.0
379.9758,937.0
380.0407,1083.0
380.1057,989.0
380.1707,1102.0
380.2356,1029.0
380.3006,1100.0
380.3655,1043.0
380.4305,1126.0
380.4955,981.0
380.5604,1092.0
380.6253,1060.0
380.6902,1121.0
380.7552,1063.0
380.8201,1094.0
380.885,1024.0
380.95,1088.0
381.0149,1096.0
381.0798,1161.0
381.1447,1019.0
381.2096,1214.0
381.2745,1064.0
381.3394,1126.0
381.4043,1160.0
381.4692,1165.0
381.5341,1105.0
381.5989,1144.0
381.6638,1137.0
381.7287,1202.0
381.7936,1070.0
381.8585,1236.0
381.9233,1126.0
381.9882,1252.0
382.053,1185.0
382.1179,1231.0
382.1828,1164.0
382.2476,1213.0
382.3124,1130.0
382.3773,1232.0
382.4421,1225.0
382.507,1270.0
382.5718,1172.0
382.6366,1229.0
382.7014,1158.0
382.7663,1282.0
382.8311,1181.0
382.8959,1286.0
382.9607,1196.0
383.0255,1231.0
383.0903,1183.0
383.1551,1292.0
383.2199,1145.0
383.2847,1254.0
383.3495,1179.0
383.4143,1293.0
383.479,1194.0
383.5438,1326.0
383.6086,1175.0
383.6734,1291.0
383.7381,1242.0
383.8029,1331.0
383.8676,1207.0
383.9324,1327.0
383.9972,1247.0
384.0619,1343.0
384.1266,1191.0
384.1914,1365.0
384.2562,1243.0
384.3209,1323.0
384.3856,1253.0
384.4503,1445.0
384.515,1386.0
384.5797,1443.0
384.6445,1381.0
384.7092,1510.0
384.7739,1492.0
384.8386,1651.0
384.9033,1563.0
384.968,1686.0
385.0327,1605.0
385.0974,1606.0
385.162,1507.0
385.2267,1603.0
385.2914,1543.0
385.3561,1738.0
385.4208,1595.0
385.4854,1507.0
385.5501,1407.0
385.6147,1505.0
385.6794,1471.0
385.7441,1579.0
385.8087,1463.0
385.8734,1681.0
385.938,1598.0
386.0027,1737.0
386.0673,1787.0
386.1319,1659.0
386.1966,1428.0
386.2612,1417.0
386.3258,1322.0
386.3904,1405.0
386.455,1337.0
386.5196,1478.0
386.5843,1566.0
386.6489,1641.0
386.7135,1666.0
386.778,1766.0
386.8426,1739.0
386.9072,1959.0
386.9718,2030.0
387.0364,2193.0
387.101,1787.0
387.1655,1435.0
387.2301,1221.0
387.2946,1269.0
387.3593,1214.0
387.4238,1289.0
387.4884,1213.0
387.5529,1386.0
387.6175,1290.0
387.682,1493.0
387.7466,1506.0
387.8111,1694.0
387.8756,1671.0
387.9402,1939.0
388.0047,2052.0
388.0692,2259.0
388.1337,2243.0
388.1982,2607.0
388.2628,2313.0
388.3272,1630.0
388.3918,1171.0
388.4563,1129.0
388.5208,911.0
388.5852,962.0
388.6497,879.0
388.7142,925.0
388.7787,918.0
388.8432,931.0
388.9077,863.0
388.9721,891.0
389.0366,860.0
389.1011,951.0
389.1655,831.0
389.23,947.0
389.2944,881.0
389.3589,994.0
389.4233,821.0
389.4878,903.0
389.5522,811.0
389.6167,936.0
389.6811,837.0
389.7455,922.0
389.8099,855.0
389.8744,903.0
389.9388,894.0
390.0032,950.0
390.0676,877.0
390.132,957.0
390.1964,843.0
390.2608,939.0
390.3252,781.0
390.3896,918.0
390.454,832.0
390.5184,919.0
390.5827,879.0
390.6471,908.0
390.7115,885.0
390.7759,962.0
390.8402,865.0
390.9046,973.0
390.9689,870.0
391.0333,894.0
391.0977,889.0
391.162,994.0
391.2264,840.0
391.2907,941.0
391.355,879.0
391.4193,938.0
391.4837,865.0
391.548,964.0
391.6123,878.0
391.6767,989.0
391.741,855.0
391.8053,998.0
391.8696,836.0
391.9339,985.0
391.9982,866.0
392.0625,967.0
392.1268,853.0
392.1911,954.0
392.2553,866.0
392.3196,963.0
392.3839,903.0
392.4482,904.0
392.5125,887.0
392.5767,987.0
392.641,877.0
392.7053,975.0
392.7695,862.0
392.8338,1009.0
392.898,927.0
392.9622,972.0
393.0265,903.0
393.0908,975.0
393.155,932.0
393.2192,971.0
393.2834,946.0
393.3477,1001.0
393.4118,939.0
393.476,1004.0
393.5403,887.0
393.6045,991.0
393.6687,862.0
393.7329,949.0
393.7971,894.0
393.8613,945.0
393.9255,875.0
393.9897,975.0
394.0539,898.0
394.118,991.0
394.1822,914.0
394.2464,967.0
394.3105,895.0
394.3747,937.0
394.4389,953.0
394.503,923.0
394.5672,839.0
394.6313,939.0
394.6954,910.0
394.7596,958.0
394.8238,847.0
394.8879,945.0
394.952,845.0
395.0161,907.0
395.0803,857.0
395.1444,929.0
395.2085,858.0
395.2726,928.0
395.3367,877.0
395.4008,890.0
395.4649,872.0
395.529,951.0
395.5931,846.0
395.6572,926.0
395.7213,791.0
395.7854,944.0
395.8495,845.0
395.9135,931.0
395.9776,897.0
396.0417,901.0
396.1057,870.0
396.1698,910.0
396.2339,835.0
396.2979,936.0
396.362,844.0
396.426,907.0
396.4901,855.0
396.5541,891.0
396.6181,850.0
396.6821,910.0
396.7462,863.0
396.8102,907.0
396.8743,839.0
396.9383,965.0
397.0023,871.0
397.0662,921.0
397.1302,827.0
397.1943,917.0
397.2583,848.0
397.3223,911.0
397.3862,818.0
397.4502,915.0
397.5142,826.0
397.5782,920.0
397.6422,865.0
397.7061,905.0
397.7701,857.0
397.8341,895.0
397.898,800.0
397.962,936.0
398.0259,846.0
398.0899,902.0
398.1538,835.0
398.2178,914.0
398.2817,866.0
398.3456,901.0
398.4096,811.0
398.4735,889.0
398.5374,821.0
398.6013,921.0
398.6653,870.0
398.7292,867.0
398.7931,840.0
398.857,928.0
398.9209,862.0
398.9848,953.0
399.0487,869.0
399.1125,984.0
399.1765,862.0
399.2404,913.0
399.3042,850.0
399.3681,966.0
399.432,870.0
399.4958,977.0
399.5597,844.0
399.6236,987.0
399.6875,871.0
399.7513,937.0
399.8152,906.0
399.879,968.0
399.9428,911.0
400.0067,905.0
400.0705,888.0
400.1343,1013.0
400.1982,878.0
400.262,985.0
400.3258,874.0
400.3896,938.0
400.4534,834.0
400.5172,973.0
400.581,820.0
400.6448,943.0
400.7086,841.0
400.7724,887.0
400.8362,892.0
400.9,916.0
400.9638,845.0
401.0276,962.0
401.0913,925.0
401.1551,998.0
401.2189,866.0
401.2826,984.0
401.3464,905.0
401.4102,972.0
401.4739,839.0
401.5376,957.0
401.6014,896.0
401.6651,986.0
401.7289,844.0
401.7926,1003.0
401.8564,872.0
401.92,916.0
401.9838,857.0
402.0475,934.0
402.1112,879.0
402.175,960.0
402.2386,900.0
402.3023,946.0
402.366,869.0
402.4297,977.0
402.4934,906.0
402.5571,964.0
402.6208,955.0
402.6845,934.0
402.7482,880.0
402.8118,957.0
402.8755,896.0
402.9392,983.0
403.0028,879.0
403.0665,946.0
403.1301,898.0
403.1938,984.0
403.2574,889.0
403.3211,1023.0
403.3847,945.0
403.4484,961.0
403.512,848.0
403.5756,986.0
403.6393,865.0
403.7029,966.0
403.7665,922.0
403.8301,970.0
403.8937,851.0
403.9573,990.0
404.0209,901.0
404.0845,959.0
404.1481,887.0
404.2117,977.0
404.2753,917.0
404.3389,1012.0
404.4024,925.0
404.466,965.0
404.5296,878.0
404.5932,964.0
404.6567,932.0
404.7203,946.0
404.7838,906.0
404.8474,987.0
404.9109,856.0
404.9745,964.0
405.0381,891.0
405.1016,1025.0
405.1651,883.0
405.2286,932.0
405.2922,910.0
405.3557,951.0
405.4193,888.0
405.4828,991.0
405.5462,902.0
405.6097,971.0
405.6733,873.0
405.7368,976.0
405.8003,899.0
405.8638,955.0
405.9272,853.0
405.9907,970.0
406.0542,866.0
406.1177,979.0
406.1812,885.0
406.2446,992.0
406.3081,913.0
406.3716,985.0
406.435,923.0
406.4985,986.0
406.562,908.0
406.6254,976.0
406.6888,908.0
406.7523,999.0
406.8157,939.0
406.8791,950.0
406.9426,910.0
407.006,964.0
407.0694,897.0
407.1328,1009.0
407.1962,975.0
407.2597,993.0
407.3231,914.0
407.3865,1054.0
407.4499,926.0
407.5133,1021.0
407.5767,944.0
407.64,997.0
407.7034,945.0
407.7668,1035.0
407.8302,952.0
407.8936,1008.0
407.9569,950.0
408.0203,1020.0
408.0836,917.0
408.147,1052.0
408.2104,964.0
408.2737,1013.0
408.3371,990.0
408.4004,1024.0
408.4637,932.0
408.5271,1052.0
408.5905,976.0
408.6537,999.0
408.7171,908.0
408.7804,1018.0
408.8437,936.0
408.907,980.0
408.9703,921.0
409.0336,964.0
409.0969,959.0
409.1602,1040.0
409.2235,946.0
409.2868,1074.0
409.3501,938.0
409.4134,1079.0
409.4767,922.0
409.5399,1065.0
409.6032,939.0
409.6665,1007.0
409.7297,893.0
409.793,1059.0
409.8563,954.0
409.9195,1017.0
409.9827,963.0
410.046,992.0
410.1092,891.0
410.1725,1025.0
410.2357,948.0
410.299,1003.0
410.3622,952.0
410.4254,1027.0
410.4886,956.0
410.5518,1014.0
410.615,925.0
410.6782,1086.0
410.7414,957.0
410.8046,1006.0
410.8678,955.0
410.931,988.0
410.9942,895.0
411.0574,1046.0
411.1205,891.0
411.1837,1047.0
411.2469,886.0
411.3101,1019.0
411.3733,943.0
411.4364,1005.0
411.4995,901.0
411.5627,1029.0
411.6259,887.0
411.689,1023.0
411.7521,942.0
411.8153,1020.0
411.8784,984.0
411.9415,977.0
412.0046,925.0
412.0678,973.0
412.1309,932.0
412.194,972.0
412.2571,934.0
412.3203,1034.0
412.3833,918.0
412.4464,994.0
412.5096,920.0
412.5727,967.0
412.6357,919.0
412.6988,1031.0
412.7619,947.0
412.825,1016.0
412.8881,909.0
412.9511,957.0
413.0142,901.0
413.0772,953.0
413.1403,928.0
413.2033,972.0
413.2664,916.0
413.3294,968.0
413.3925,870.0
413.4555,1026.0
413.5186,934.0
413.5816,966.0
413.6446,880.0
413.7076,953.0
413.7707,873.0
413.8337,1023.0
413.8967,945.0
413.9597,966.0
414.0227,946.0
414.0857,996.0
414.1487,915.0
414.2117,1004.0
414.2747,917.0
414.3376,1017.0
414.4006,890.0
414.4636,975.0
414.5266,950.0
414.5896,1038.0
414.6525,978.0
414.7155,1075.0
414.7784,921.0
414.8414,977.0
414.9044,985.0
414.9673,1063.0
415.0303,973.0
415.0932,1096.0
415.1561,1004.0
415.2191,1008.0
415.282,919.0
415.3449,1064.0
415.4079,938.0
415.4708,1030.0
415.5336,954.0
415.5966,1061.0
415.6595,986.0
415.7224,1069.0
415.7853,969.0
415.8482,997.0
415.9111,952.0
415.9739,979.0
416.0368,918.0
416.0997,1034.0
416.1626,984.0
416.2255,1004.0
416.2883,933.0
416.3512,1033.0
416.414,991.0
416.4769,1054.0
416.5397,960.0
416.6026,1086.0
416.6654,980.0
416.7283,1015.0
416.7911,989.0
416.8539,974.0
416.9167,909.0
416.9796,980.0
417.0424,931.0
417.1052,976.0
417.168,935.0
417.2308,980.0
417.2936,934.0
417.3564,1029.0
417.4193,912.0
417.4821,1005.0
417.5448,908.0
417.6076,1045.0
417.6704,988.0
417.7332,1058.0
417.796,992.0
417.8587,1076.0
417.9215,1006.0
417.9842,1078.0
418.047,941.0
418.1098,980.0
418.1725,912.0
418.2353,985.0
418.298,881.0
418.3607,938.0
418.4235,914.0
418.4862,1034.0
418.549,912.0
418.6117,972.0
418.6744,881.0
418.7371,969.0
418.7998,887.0
418.8625,988.0
418.9252,890.0
418.9879,966.0
419.0507,894.0
419.1133,941.0
419.176,910.0
419.2387,1079.0
419.3014,935.0
419.3641,1029.0
419.4268,990.0
419.4894,1065.0
419.5521,1041.0
419.6147,1131.0
419.6774,966.0
419.7401,1005.0
419.8027,928.0
419.8654,976.0
419.928,853.0
419.9906,969.0
420.0533,900.0
420.1159,978.0
420.1785,864.0
420.2411,950.0
420.3038,836.0
420.3664,958.0
420.429,873.0
420.4916,984.0
420.5542,883.0
420.6168,962.0
420.6794,865.0
420.742,968.0
420.8046,886.0
420.8672,941.0
420.9297,891.0
420.9923,1014.0
421.0549,876.0
421.1175,975.0
421.18,880.0
421.2426,985.0
421.3052,935.0
421.3677,1058.0
421.4303,995.0
421.4928,1068.0
421.5554,878.0
421.6179,965.0
421.6804,885.0
421.743,933.0
421.8055,872.0
421.868,939.0
421.9305,822.0
421.993,904.0
422.0556,834.0
422.1181,876.0
422.1806,815.0
422.2431,907.0
422.3055,840.0
422.368,895.0
422.4305,782.0
422.493,907.0
422.5555,809.0
422.618,926.0
422.6805,839.0
422.7429,949.0
422.8054,873.0
422.8679,904.0
422.9303,815.0
422.9928,909.0
423.0552,858.0
423.1177,920.0
423.1801,858.0
423.2425,933.0
423.305,856.0
423.3674,947.0
423.4298,886.0
423.4922,885.0
423.5547,836.0
423.617,890.0
423.6795,839.0
423.7419,927.0
423.8043,862.0
423.8667,968.0
423.9291,865.0
423.9915,959.0
424.0538,871.0
424.1163,927.0
424.1786,856.0
424.241,960.0
424.3034,909.0
424.3658,963.0
424.4281,889.0
424.4905,992.0
424.5529,876.0
424.6152,972.0
424.6775,923.0
424.7399,990.0
424.8022,928.0
424.8646,966.0
424.9269,924.0
424.9892,987.0
425.0515,957.0
425.1139,1000.0
425.1762,891.0
425.2385,1000.0
425.3008,921.0
425.3631,978.0
425.4254,912.0
425.4877,1021.0
425.55,924.0
425.6123,944.0
425.6746,965.0
425.7369,1036.0
425.7992,950.0
425.8614,982.0
425.9237,908.0
425.9859,994.0
426.0482,996.0
426.1105,1037.0
426.1727,923.0
426.235,978.0
426.2972,961.0
426.3595,1036.0
426.4217,900.0
426.4839,1051.0
426.5462,971.0
426.6084,974.0
426.6706,958.0
426.7328,1030.0
426.795,951.0
426.8573,979.0
426.9195,913.0
426.9817,995.0
427.0439,887.0
427.1061,995.0
427.1683,925.0
427.2305,1000.0
427.2927,927.0
427.3549,963.0
427.417,893.0
427.4792,1002.0
427.5413,894.0
427.6035,1013.0
427.6657,947.0
427.7278,1000.0
427.79,929.0
427.8521,989.0
427.9142,892.0
427.9764,957.0
428.0386,898.0
428.1007,974.0
428.1628,934.0
428.2249,970.0
428.287,888.0
428.3492,971.0
428.4113,919.0
428.4734,989.0
428.5355,893.0
428.5976,936.0
428.6597,919.0
428.7218,949.0
428.7839,874.0
428.846,974.0
428.9081,870.0
428.9702,979.0
429.0322,850.0
429.0943,941.0
429.1563,883.0
429.2184,953.0
429.2805,867.0
429.3425,1011.0
429.4046,904.0
429.4666,905.0
429.5287,872.0
429.5908,939.0
429.6528,841.0
429.7148,922.0
429.7768,890.0
429.8388,914.0
429.9008,849.0
429.9629,960.0
430.0249,833.0
430.0869,923.0
430.1489,861.0
430.2109,922.0
430.2729,796.0
430.3349,954.0
430.3969,875.0
430.4589,936.0
430.5208,847.0
430.5828,872.0
430.6448,773.0
430.7068,915.0
430.7688,818.0
430.8307,889.0
430.8926,868.0
430.9546,896.0
431.0165,831.0
431.0785,917.0
431.1404,778.0
431.2024,904.0
431.2643,860.0
431.3262,913.0
431.3881,848.0
431.4501,865.0
431.512,826.0
431.5739,908.0
431.6358,816.0
431.6977,896.0
431.7596,830.0
431.8215,863.0
431.8834,842.0
431.9453,860.0
432.0072,822.0
432.0691,895.0
432.131,825.0
432.1928,943.0
432.2547,776.0
432.3165,865.0
432.3784,797.0
432.4403,846.0
432.5021,805.0
432.564,912.0
432.6258,802.0
432.6876,860.0
432.7495,819.0
432.8113,858.0
432.8732,796.0
432.935,851.0
432.9968,782.0
433.0586,857.0
433.1204,813.0
433.1823,924.0
433.2441,865.0
433.3059,869.0
433.3677,806.0
433.4295,882.0
433.4912,838.0
433.5531,910.0
433.6148,760.0
433.6766,875.0
433.7384,793.0
433.8001,877.0
433.8619,819.0
433.9237,894.0
433.9854,783.0
434.0472,878.0
434.1089,800.0
434.1707,847.0
434.2324,831.0
434.2942,899.0
434.3559,803.0
434.4177,894.0
434.4794,805.0
434.5411,921.0
434.6028,859.0
434.6645,915.0
434.7263,841.0
434.788,916.0
434.8497,876.0
434.9113,899.0
434.973,817.0
435.0347,922.0
435.0965,808.0
435.1581,954.0
435.2198,863.0
435.2815,920.0
435.3431,813.0
435.4048,842.0
435.4665,829.0
435.5282,943.0
435.5898,818.0
435.6515,880.0
435.7131,855.0
435.7747,970.0
435.8363,849.0
435.898,929.0
435.9597,830.0
436.0213,881.0
436.0829,859.0
436.1445,952.0
436.2061,860.0
436.2678,925.0
436.3294,886.0
436.391,1001.0
436.4525,912.0
436.5141,876.0
436.5757,850.0
436.6373,931.0
436.6989,868.0
436.7605,914.0
436.8221,858.0
436.8836,889.0
436.9452,823.0
437.0067,930.0
437.0684,887.0
437.1299,911.0
437.1914,798.0
437.253,901.0
437.3145,859.0
437.3761,907.0
437.4376,801.0
437.4992,897.0
437.5607,802.0
437.6222,885.0
437.6837,809.0
437.7452,886.0
437.8067,798.0
437.8683,865.0
437.9298,892.0
437.9913,928.0
438.0528,851.0
438.1143,915.0
438.1757,838.0
438.2372,882.0
438.2987,846.0
438.3602,867.0
438.4217,845.0
438.4831,875.0
438.5446,835.0
438.6061,913.0
438.6675,843.0
438.729,850.0
438.7904,795.0
438.8519,893.0
438.9133,798.0
438.9747,863.0
439.0362,803.0
439.0976,903.0
439.159,824.0
439.2204,883.0
439.2819,785.0
439.3433,905.0
439.4047,829.0
439.4661,900.0
439.5275,829.0
439.5889,882.0
439.6503,782.0
439.7116,870.0
439.7731,808.0
439.8345,934.0
439.8958,767.0
439.9572,887.0
440.0186,855.0
440.0799,926.0
440.1413,841.0
440.2027,877.0
440.264,779.0
440.3253,903.0
440.3867,853.0
440.448,882.0
440.5093,824.0
440.5707,919.0
440.632,829.0
440.6934,882.0
440.7546,813.0
440.816,906.0
440.8773,791.0
440.9386,936.0
440.9999,805.0
441.0612,908.0
441.1225,849.0
441.1838,867.0
441.2451,818.0
441.3063,864.0
441.3677,874.0
441.429,914.0
441.4902,809.0
441.5515,917.0
441.6127,794.0
441.674,865.0
441.7353,863.0
441.7965,886.0
441.8578,804.0
441.919,893.0
441.9802,840.0
442.0414,909.0
442.1027,821.0
442.164,912.0
442.2252,806.0
442.2864,882.0
442.3476,824.0
442.4088,896.0
442.47,842.0
442.5312,909.0
442.5924,849.0
442.6536,894.0
442.7148,862.0
442.776,867.0
442.8372,810.0
442.8984,888.0
442.9596,803.0
443.0207,899.0
443.0819,821.0
443.143,867.0
443.2042,818.0
443.2653,893.0
443.3265,837.0
443.3877,890.0
443.4488,851.0
443.5099,883.0
443.5711,820.0
443.6322,876.0
443.6934,823.0
443.7545,929.0
443.8156,855.0
443.8767,914.0
443.9378,838.0
443.9989,891.0
444.0601,788.0
444.1212,885.0
444.1822,843.0
444.2433,893.0
444.3044,863.0
444.3654,890.0
444.4265,822.0
444.4877,883.0
444.5487,830.0
444.6098,927.0
444.6708,853.0
444.7319,895.0
444.7929,849.0
444.854,921.0
444.915,845.0
444.9761,892.0
445.0371,779.0
445.0981,906.0
445.1592,780.0
445.2203,890.0
445.2812,824.0
445.3423,907.0
445.4033,809.0
445.4643,924.0
445.5253,847.0
445.5862,938.0
445.6473,849.0
445.7083,926.0
445.7693,816.0
445.8303,859.0
445.8912,855.0
445.9522,882.0
446.0132,829.0
446.0742,870.0
446.1352,817.0
446.1961,887.0
446.257,789.0
446.318,918.0
446.379,813.0
446.4399,868.0
446.5009,827.0
446.5618,910.0
446.6227,805.0
446.6836,896.0
446.7446,828.0
446.8055,871.0
446.8664,811.0
446.9273,896.0
446.9883,826.0
447.0491,878.0
447.11,793.0
447.171,877.0
447.2319,746.0
447.2927,901.0
447.3536,813.0
447.4145,894.0
447.4753,804.0
447.5363,865.0
447.5971,764.0
447.658,872.0
447.7188,789.0
447.7797,886.0
447.8405,778.0
447.9014,812.0
447.9623,750.0
448.0231,820.0
448.0839,773.0
448.1447,837.0
448.2056,772.0
448.2664,867.0
448.3272,786.0
448.3881,882.0
448.4489,766.0
448.5096,804.0
448.5705,751.0
448.6312,835.0
448.6921,771.0
448.7529,867.0
448.8137,746.0
448.8744,847.0
448.9352,745.0
448.9959,871.0
449.0567,775.0
449.1175,817.0
449.1783,745.0
449.239,838.0
449.2998,759.0
449.3605,821.0
449.4213,738.0
449.4821,844.0
449.5428,759.0
449.6035,813.0
449.6642,736.0
449.725,853.0
449.7857,746.0
449.8464,861.0
449.9071,734.0
449.9679,834.0
450.0285,796.0
450.0892,855.0
450.1499,726.0
450.2106,815.0
450.2714,773.0
450.332,782.0
450.3927,743.0
450.4534,847.0
450.514,781.0
450.5747,810.0
450.6354,785.0
450.696,787.0
450.7567,735.0
450.8174,812.0
450.878,757.0
450.9386,828.0
450.9993,747.0
451.0599,841.0
451.1206,732.0
451.1812,810.0
451.2418,764.0
451.3024,815.0
451.363,734.0
451.4236,798.0
451.4843,727.0
451.5449,832.0
451.6054,757.0
451.666,799.0
451.7267,723.0
451.7873,813.0
451.8478,732.0
451.9084,822.0
451.969,745.0
452.0295,837.0
452.0901,774.0
452.1507,846.0
452.2113,733.0
452.2718,800.0
452.3324,700.0
452.3929,779.0
452.4534,731.0
452.5139,834.0
452.5745,726.0
452.635,860.0
452.6956,747.0
452.7561,809.0
452.8166,723.0
452.8771,853.0
452.9377,732.0
452.9981,775.0
453.0586,744.0
453.1191,891.0
453.1796,784.0
453.2401,822.0
453.3006,775.0
453.3611,794.0
453.4216,699.0
453.4821,832.0
453.5425,767.0
453.6029,829.0
453.6634,769.0
453.7239,817.0
453.7844,772.0
453.8448,869.0
453.9052,766.0
453.9656,856.0
454.0261,786.0
454.0866,864.0
454.147,720.0
454.2074,813.0
454.2678,742.0
454.3282,811.0
454.3886,770.0
454.449,832.0
454.5095,764.0
454.5699,821.0
454.6302,783.0
454.6906,845.0
454.751,738.0
454.8114,852.0
454.8718,786.0
454.9322,849.0
454.9925,786.0
455.0529,809.0
455.1133,782.0
455.1736,859.0
455.234,808.0
455.2943,855.0
455.3547,828.0
455.415,889.0
455.4753,775.0
455.5357,856.0
455.5959,789.0
455.6563,852.0
455.7167,756.0
455.777,853.0
455.8373,752.0
455.8976,812.0
455.9579,820.0
456.0182,826.0
456.0785,784.0
456.1388,864.0
456.1991,768.0
456.2593,864.0
456.3196,769.0
456.3799,852.0
456.4402,784.0
456.5005,846.0
456.5607,798.0
456.621,882.0
456.6812,784.0
456.7414,862.0
456.8018,827.0
456.862,875.0
456.9222,775.0
456.9825,872.0
457.0426,739.0
457.1028,859.0
457.1631,787.0
457.2234,899.0
457.2835,770.0
457.3438,873.0
457.404,767.0
457.4641,867.0
457.5244,797.0
457.5846,871.0
457.6447,734.0
457.7049,915.0
457.7651,819.0
457.8253,880.0
457.8854,781.0
457.9456,833.0
458.0058,729.0
458.0659,871.0
458.1261,742.0
458.1862,848.0
458.2464,742.0
458.3066,876.0
458.3667,775.0
458.4268,903.0
458.4869,792.0
458.5471,731.0
458.6072,618.0
458.6674,673.0
458.7274,623.0
458.7876,726.0
458.8477,639.0
458.9077,699.0
458.9679,626.0
459.0279,685.0
459.0881,619.0
459.1481,705.0
459.2082,649.0
459.2683,705.0
459.3283,614.0
459.3884,725.0
459.4485,616.0
459.5086,738.0
459.5686,598.0
459.6287,673.0
459.6887,624.0
459.7487,706.0
459.8088,647.0
459.8688,667.0
459.9289,618.0
459.9889,738.0
460.0489,659.0
460.1089,703.0
460.1689,649.0
460.229,691.0
460.289,591.0
