Laser settings:
	Diode frequency:	5 Hz
	Pulses fired:		105
	Q-Switch blanking:	5
	Q-Switch delay:		201 μs
	Q-Switch presync:	1 μs
Spectrometer settings:
	Integration time:	0.0090 ms
	Integration delay:	0.000 ns
	Averaging:		1
	Trigger mode:		External
	Dynamic Dark Correction:		Disabled


wavelength,intensity
184.9409,640.0
185.0142,626.0
185.0875,669.0
185.1608,646.0
185.2341,681.0
185.3074,606.0
185.3807,697.0
185.454,634.0
185.5273,677.0
185.6006,610.0
185.6739,659.0
185.7472,614.0
185.8205,671.0
185.8938,618.0
185.9671,739.0
186.0403,621.0
186.1136,675.0
186.1869,603.0
186.2601,685.0
186.3334,595.0
186.4067,674.0
186.4799,589.0
186.5532,669.0
186.6265,600.0
186.6997,685.0
186.773,625.0
186.8462,672.0
186.9195,600.0
186.9928,684.0
187.066,636.0
187.1392,696.0
187.2125,576.0
187.2857,678.0
187.3589,648.0
187.4322,702.0
187.5054,654.0
187.5786,682.0
187.6519,649.0
187.7251,730.0
187.7983,623.0
187.8715,723.0
187.9447,631.0
188.018,710.0
188.0912,583.0
188.1644,685.0
188.2376,613.0
188.3108,683.0
188.384,627.0
188.4572,687.0
188.5304,662.0
188.6036,698.0
188.6768,643.0
188.75,715.0
188.8232,639.0
188.8963,693.0
188.9695,631.0
189.0427,701.0
189.1159,627.0
189.1891,745.0
189.2623,624.0
189.3354,703.0
189.4086,638.0
189.4818,677.0
189.5549,662.0
189.6281,730.0
189.7012,667.0
189.7744,717.0
189.8476,636.0
189.9207,715.0
189.9939,673.0
190.067,729.0
190.1402,686.0
190.2133,718.0
190.2864,647.0
190.3596,766.0
190.4327,662.0
190.5059,701.0
190.579,699.0
190.6521,745.0
190.7253,657.0
190.7984,733.0
190.8715,678.0
190.9446,723.0
191.0177,632.0
191.0908,694.0
191.164,618.0
191.2371,751.0
191.3102,661.0
191.3833,700.0
191.4564,653.0
191.5295,727.0
191.6026,631.0
191.6757,770.0
191.7488,646.0
191.8219,728.0
191.895,669.0
191.968,747.0
192.0411,671.0
192.1142,757.0
192.1873,678.0
192.2604,752.0
192.3334,627.0
192.4065,753.0
192.4796,692.0
192.5527,773.0
192.6257,686.0
192.6988,747.0
192.7718,734.0
192.8449,784.0
192.918,720.0
192.991,885.0
193.064,857.0
193.1371,945.0
193.2101,836.0
193.2832,900.0
193.3562,810.0
193.4292,796.0
193.5023,712.0
193.5753,794.0
193.6484,724.0
193.7214,783.0
193.7944,702.0
193.8674,796.0
193.9405,645.0
194.0135,796.0
194.0865,703.0
194.1595,801.0
194.2325,680.0
194.3055,760.0
194.3785,696.0
194.4515,765.0
194.5246,728.0
194.5975,764.0
194.6705,690.0
194.7435,718.0
194.8165,634.0
194.8895,766.0
194.9625,680.0
195.0355,739.0
195.1085,695.0
195.1815,739.0
195.2544,703.0
195.3274,760.0
195.4004,687.0
195.4734,747.0
195.5463,641.0
195.6193,749.0
195.6923,724.0
195.7652,755.0
195.8382,719.0
195.9111,764.0
195.9841,686.0
196.057,822.0
196.13,699.0
196.2029,783.0
196.2759,640.0
196.3488,729.0
196.4218,713.0
196.4947,763.0
196.5676,717.0
196.6406,794.0
196.7135,678.0
196.7864,816.0
196.8593,695.0
196.9323,780.0
197.0052,743.0
197.0781,775.0
197.151,678.0
197.2239,757.0
197.2969,672.0
197.3697,757.0
197.4427,653.0
197.5156,779.0
197.5885,714.0
197.6614,770.0
197.7343,676.0
197.8072,774.0
197.88,669.0
197.9529,733.0
198.0258,701.0
198.0987,760.0
198.1716,683.0
198.2445,720.0
198.3173,678.0
198.3902,774.0
198.4631,674.0
198.5359,773.0
198.6088,672.0
198.6817,731.0
198.7545,745.0
198.8274,717.0
198.9003,696.0
198.9731,764.0
199.046,695.0
199.1188,756.0
199.1917,708.0
199.2645,804.0
199.3373,676.0
199.4102,735.0
199.483,704.0
199.5559,718.0
199.6287,732.0
199.7015,790.0
199.7744,729.0
199.8472,782.0
199.92,685.0
199.9928,762.0
200.0656,709.0
200.1385,760.0
200.2113,697.0
200.2841,746.0
200.3569,663.0
200.4297,762.0
200.5025,648.0
200.5753,766.0
200.6481,701.0
200.7209,759.0
200.7937,671.0
200.8665,744.0
200.9393,687.0
201.0121,776.0
201.0848,667.0
201.1576,837.0
201.2304,680.0
201.3032,777.0
201.3759,708.0
201.4487,733.0
201.5215,724.0
201.5943,780.0
201.667,736.0
201.7398,742.0
201.8125,636.0
201.8853,772.0
201.958,668.0
202.0308,812.0
202.1035,693.0
202.1763,786.0
202.249,708.0
202.3218,736.0
202.3945,698.0
202.4673,810.0
202.54,707.0
202.6127,776.0
202.6855,660.0
202.7582,789.0
202.8309,659.0
202.9036,749.0
202.9764,662.0
203.0491,790.0
203.1218,682.0
203.1945,787.0
203.2672,694.0
203.3399,785.0
203.4126,671.0
203.4853,767.0
203.558,685.0
203.6307,767.0
203.7034,694.0
203.7761,753.0
203.8488,731.0
203.9215,758.0
203.9942,683.0
204.0669,777.0
204.1395,644.0
204.2122,725.0
204.2849,685.0
204.3576,745.0
204.4302,684.0
204.5029,802.0
204.5756,688.0
204.6482,770.0
204.7209,684.0
204.7935,762.0
204.8662,691.0
204.9389,764.0
205.0115,683.0
205.0842,782.0
205.1568,683.0
205.2294,707.0
205.3021,702.0
205.3747,711.0
205.4474,703.0
205.52,747.0
205.5926,645.0
205.6653,769.0
205.7379,669.0
205.8105,761.0
205.8831,715.0
205.9557,726.0
206.0284,666.0
206.101,752.0
206.1736,682.0
206.2462,749.0
206.3188,681.0
206.3914,745.0
206.464,702.0
206.5366,767.0
206.6092,630.0
206.6818,778.0
206.7544,732.0
206.827,767.0
206.8996,647.0
206.9721,747.0
207.0447,695.0
207.1173,714.0
207.1899,705.0
207.2625,785.0
207.335,705.0
207.4076,783.0
207.4802,697.0
207.5527,752.0
207.6253,652.0
207.6978,780.0
207.7704,703.0
207.843,768.0
207.9155,682.0
207.9881,776.0
208.0606,684.0
208.1331,773.0
208.2057,676.0
208.2782,767.0
208.3508,752.0
208.4233,790.0
208.4958,718.0
208.5684,768.0
208.6409,699.0
208.7134,774.0
208.7859,677.0
208.8584,769.0
208.931,684.0
209.0035,717.0
209.076,683.0
209.1485,750.0
209.221,648.0
209.2935,754.0
209.366,724.0
209.4385,775.0
209.511,689.0
209.5835,788.0
209.656,699.0
209.7285,748.0
209.801,699.0
209.8735,780.0
209.9459,714.0
210.0184,753.0
210.0909,698.0
210.1634,747.0
210.2358,690.0
210.3083,767.0
210.3808,710.0
210.4532,733.0
210.5257,665.0
210.5982,727.0
210.6706,665.0
210.7431,761.0
210.8155,726.0
210.888,738.0
210.9604,677.0
211.0329,804.0
211.1053,664.0
211.1777,719.0
211.2502,683.0
211.3226,718.0
211.3951,700.0
211.4675,776.0
211.5399,681.0
211.6123,781.0
211.6847,665.0
211.7572,742.0
211.8296,680.0
211.902,786.0
211.9744,718.0
212.0468,756.0
212.1192,637.0
212.1917,710.0
212.264,687.0
212.3364,759.0
212.4088,686.0
212.4812,772.0
212.5536,707.0
212.626,765.0
212.6984,693.0
212.7708,745.0
212.8432,704.0
212.9155,757.0
212.9879,684.0
213.0603,700.0
213.1326,684.0
213.205,722.0
213.2774,714.0
213.3498,768.0
213.4221,690.0
213.4945,744.0
213.5668,683.0
213.6392,767.0
213.7115,712.0
213.7839,747.0
213.8562,660.0
213.9286,717.0
214.0009,707.0
214.0732,736.0
214.1456,691.0
214.2179,780.0
214.2903,702.0
214.3626,777.0
214.4349,686.0
214.5072,763.0
214.5796,694.0
214.6519,727.0
214.7242,690.0
214.7965,785.0
214.8688,713.0
214.9411,711.0
215.0134,711.0
215.0857,785.0
215.158,692.0
215.2303,802.0
215.3026,727.0
215.3749,783.0
215.4472,716.0
215.5195,782.0
215.5918,639.0
215.6641,771.0
215.7363,745.0
215.8086,792.0
215.8809,693.0
215.9532,749.0
216.0254,689.0
216.0977,730.0
216.17,696.0
216.2422,774.0
216.3145,706.0
216.3867,784.0
216.459,721.0
216.5313,762.0
216.6035,693.0
216.6758,775.0
216.748,676.0
216.8202,762.0
216.8925,693.0
216.9647,772.0
217.037,733.0
217.1092,790.0
217.1814,691.0
217.2536,756.0
217.3259,708.0
217.3981,784.0
217.4703,681.0
217.5425,791.0
217.6147,722.0
217.687,804.0
217.7592,710.0
217.8314,804.0
217.9035,663.0
217.9758,755.0
218.048,720.0
218.1201,811.0
218.1924,742.0
218.2645,797.0
218.3367,705.0
218.4089,788.0
218.4811,717.0
218.5533,799.0
218.6255,676.0
218.6976,752.0
218.7698,712.0
218.842,762.0
218.9142,717.0
218.9863,800.0
219.0585,726.0
219.1306,808.0
219.2028,721.0
219.2749,798.0
219.3471,726.0
219.4193,805.0
219.4914,708.0
219.5636,806.0
219.6357,755.0
219.7078,775.0
219.78,730.0
219.8521,810.0
219.9242,741.0
219.9964,837.0
220.0685,775.0
220.1406,797.0
220.2128,719.0
220.2849,822.0
220.357,752.0
220.4291,785.0
220.5012,730.0
220.5733,783.0
220.6454,719.0
220.7175,810.0
220.7896,734.0
220.8617,819.0
220.9338,717.0
221.0059,811.0
221.078,749.0
221.1501,771.0
221.2222,753.0
221.2943,828.0
221.3663,731.0
221.4384,826.0
221.5105,785.0
221.5826,792.0
221.6546,742.0
221.7267,815.0
221.7988,733.0
221.8708,814.0
221.9429,718.0
222.015,805.0
222.087,755.0
222.1591,816.0
222.2311,753.0
222.3032,827.0
222.3752,722.0
222.4473,815.0
222.5193,728.0
222.5913,782.0
222.6634,737.0
222.7354,789.0
222.8074,749.0
222.8795,818.0
222.9515,719.0
223.0235,780.0
223.0955,742.0
223.1675,820.0
223.2395,755.0
223.3116,849.0
223.3836,758.0
223.4556,783.0
223.5276,774.0
223.5996,839.0
223.6716,726.0
223.7436,793.0
223.8156,747.0
223.8876,831.0
223.9595,745.0
224.0315,777.0
224.1035,772.0
224.1755,803.0
224.2475,737.0
224.3195,786.0
224.3914,756.0
224.4634,824.0
224.5354,737.0
224.6073,818.0
224.6793,755.0
224.7512,804.0
224.8232,752.0
224.8952,816.0
224.9671,729.0
225.0391,811.0
225.111,788.0
225.1829,858.0
225.2549,774.0
225.3268,804.0
225.3988,799.0
225.4707,858.0
225.5426,739.0
225.6146,821.0
225.6865,776.0
225.7584,857.0
225.8303,783.0
225.9022,849.0
225.9742,780.0
226.0461,834.0
226.118,748.0
226.1899,853.0
226.2618,780.0
226.3337,834.0
226.4056,801.0
226.4775,808.0
226.5494,766.0
226.6213,852.0
226.6932,775.0
226.7651,816.0
226.8369,762.0
226.9088,867.0
226.9807,766.0
227.0526,823.0
227.1245,756.0
227.1963,833.0
227.2682,749.0
227.3401,881.0
227.4119,725.0
227.4838,830.0
227.5556,782.0
227.6275,842.0
227.6993,790.0
227.7712,862.0
227.8431,773.0
227.9149,849.0
227.9867,763.0
228.0586,791.0
228.1304,715.0
228.2023,858.0
228.2741,768.0
228.3459,881.0
228.4177,773.0
228.4896,839.0
228.5614,725.0
228.6332,814.0
228.705,808.0
228.7768,852.0
228.8486,757.0
228.9205,870.0
228.9923,759.0
229.0641,888.0
229.1359,772.0
229.2077,820.0
229.2794,835.0
229.3513,895.0
229.423,868.0
229.4948,1064.0
229.5666,1026.0
229.6384,1149.0
229.7102,1141.0
229.782,1054.0
229.8537,892.0
229.9255,877.0
229.9973,828.0
230.069,828.0
230.1408,687.0
230.2126,848.0
230.2843,676.0
230.3561,802.0
230.4278,740.0
230.4996,789.0
230.5713,720.0
230.6431,846.0
230.7148,745.0
230.7866,784.0
230.8583,740.0
230.93,792.0
231.0018,771.0
231.0735,788.0
231.1452,706.0
231.2169,790.0
231.2887,714.0
231.3604,843.0
231.4321,714.0
231.5038,747.0
231.5755,733.0
231.6472,819.0
231.7189,737.0
231.7906,783.0
231.8624,715.0
231.9341,822.0
232.0057,715.0
232.0774,806.0
232.1491,773.0
232.2208,797.0
232.2925,739.0
232.3642,827.0
232.4359,765.0
232.5075,846.0
232.5792,760.0
232.6509,847.0
232.7225,753.0
232.7942,814.0
232.8659,713.0
232.9375,798.0
233.0092,751.0
233.0809,810.0
233.1525,717.0
233.2242,826.0
233.2958,753.0
233.3675,829.0
233.4391,759.0
233.5107,804.0
233.5824,707.0
233.654,830.0
233.7256,748.0
233.7973,797.0
233.8689,734.0
233.9405,841.0
234.0121,763.0
234.0838,794.0
234.1554,776.0
234.227,861.0
234.2986,764.0
234.3702,805.0
234.4418,705.0
234.5134,812.0
234.585,706.0
234.6566,788.0
234.7282,756.0
234.7998,830.0
234.8714,740.0
234.943,831.0
235.0146,706.0
235.0862,790.0
235.1577,729.0
235.2293,742.0
235.3009,739.0
235.3725,817.0
235.444,747.0
235.5156,826.0
235.5872,737.0
235.6587,807.0
235.7303,738.0
235.8018,821.0
235.8734,733.0
235.9449,798.0
236.0165,751.0
236.088,811.0
236.1596,768.0
236.2311,778.0
236.3026,759.0
236.3742,811.0
236.4457,767.0
236.5172,808.0
236.5887,771.0
236.6603,777.0
236.7318,717.0
236.8033,839.0
236.8748,746.0
236.9464,791.0
237.0179,722.0
237.0894,794.0
237.1609,735.0
237.2324,819.0
237.3039,747.0
237.3754,839.0
237.4469,769.0
237.5184,843.0
237.5898,729.0
237.6613,825.0
237.7328,721.0
237.8043,806.0
237.8758,747.0
237.9472,832.0
238.0187,734.0
238.0902,852.0
238.1617,771.0
238.2331,861.0
238.3046,794.0
238.376,815.0
238.4475,764.0
238.519,833.0
238.5904,802.0
238.6618,807.0
238.7333,751.0
238.8047,818.0
238.8762,790.0
238.9476,835.0
239.0191,773.0
239.0905,851.0
239.1619,737.0
239.2334,835.0
239.3048,729.0
239.3762,828.0
239.4476,797.0
239.519,822.0
239.5904,747.0
239.6619,848.0
239.7333,764.0
239.8047,824.0
239.8761,753.0
239.9475,871.0
240.0189,742.0
240.0903,876.0
240.1617,822.0
240.233,864.0
240.3044,701.0
240.3758,811.0
240.4472,722.0
240.5186,827.0
240.59,752.0
240.6613,842.0
240.7327,797.0
240.8041,841.0
240.8754,781.0
240.9468,826.0
241.0181,773.0
241.0895,824.0
241.1609,748.0
241.2322,838.0
241.3036,753.0
241.3749,852.0
241.4462,782.0
241.5176,888.0
241.5889,777.0
241.6602,846.0
241.7316,754.0
241.8029,837.0
241.8743,758.0
241.9456,822.0
242.0169,729.0
242.0882,821.0
242.1595,816.0
242.2309,843.0
242.3022,757.0
242.3735,858.0
242.4448,732.0
242.5161,828.0
242.5874,791.0
242.6587,826.0
242.73,793.0
242.8013,816.0
242.8726,754.0
242.9438,831.0
243.0151,767.0
243.0864,834.0
243.1577,698.0
243.229,847.0
243.3002,813.0
243.3715,815.0
243.4428,755.0
243.5141,827.0
243.5853,751.0
243.6566,860.0
243.7278,725.0
243.7991,837.0
243.8703,743.0
243.9416,829.0
244.0128,804.0
244.0841,846.0
244.1553,754.0
244.2266,841.0
244.2978,750.0
244.369,844.0
244.4402,767.0
244.5115,841.0
244.5827,776.0
244.6539,867.0
244.7251,762.0
244.7964,823.0
244.8676,768.0
244.9388,854.0
245.01,739.0
245.0812,793.0
245.1524,779.0
245.2236,844.0
245.2948,793.0
245.366,825.0
245.4372,780.0
245.5084,815.0
245.5796,754.0
245.6507,786.0
245.7219,728.0
245.7931,842.0
245.8643,787.0
245.9355,825.0
246.0066,745.0
246.0778,808.0
246.149,747.0
246.2201,791.0
246.2913,744.0
246.3624,856.0
246.4336,712.0
246.5047,835.0
246.5759,719.0
246.647,822.0
246.7182,694.0
246.7893,856.0
246.8605,763.0
246.9316,801.0
247.0027,715.0
247.0739,825.0
247.145,740.0
247.2161,801.0
247.2872,720.0
247.3584,827.0
247.4295,794.0
247.5006,846.0
247.5717,768.0
247.6428,904.0
247.7139,905.0
247.785,1013.0
247.8561,979.0
247.9272,1116.0
247.9983,976.0
248.0694,1024.0
248.1405,912.0
248.2116,885.0
248.2827,782.0
248.3537,876.0
248.4248,734.0
248.4959,856.0
248.5669,788.0
248.638,857.0
248.7091,750.0
248.7802,853.0
248.8512,770.0
248.9223,856.0
248.9933,756.0
249.0644,777.0
249.1354,760.0
249.2065,849.0
249.2775,768.0
249.3486,822.0
249.4196,736.0
249.4906,822.0
249.5617,730.0
249.6327,792.0
249.7037,755.0
249.7747,838.0
249.8458,725.0
249.9168,879.0
249.9878,748.0
250.0588,825.0
250.1298,767.0
250.2009,824.0
250.2719,761.0
250.3429,810.0
250.4138,736.0
250.4849,857.0
250.5558,778.0
250.6268,872.0
250.6978,763.0
250.7688,858.0
250.8398,798.0
250.9108,933.0
250.9818,818.0
251.0527,905.0
251.1237,827.0
251.1947,971.0
251.2657,866.0
251.3366,883.0
251.4076,798.0
251.4785,855.0
251.5495,753.0
251.6205,807.0
251.6914,755.0
251.7623,835.0
251.8333,731.0
251.9042,806.0
251.9752,751.0
252.0461,811.0
252.1171,739.0
252.188,831.0
252.2589,713.0
252.3298,847.0
252.4008,745.0
252.4717,829.0
252.5426,731.0
252.6135,840.0
252.6844,741.0
252.7553,786.0
252.8262,744.0
252.8971,835.0
252.9681,750.0
253.039,830.0
253.1098,745.0
253.1808,798.0
253.2516,723.0
253.3225,801.0
253.3934,731.0
253.4643,794.0
253.5352,739.0
253.606,819.0
253.6769,738.0
253.7478,811.0
253.8187,781.0
253.8895,811.0
253.9604,725.0
254.0312,823.0
254.1021,723.0
254.173,810.0
254.2438,691.0
254.3147,842.0
254.3855,731.0
254.4563,793.0
254.5272,751.0
254.598,861.0
254.6689,729.0
254.7397,795.0
254.8105,734.0
254.8813,827.0
254.9522,774.0
255.023,822.0
255.0938,733.0
255.1646,835.0
255.2354,731.0
255.3062,867.0
255.3771,673.0
255.4479,818.0
255.5187,733.0
255.5894,809.0
255.6603,775.0
255.731,872.0
255.8018,731.0
255.8726,862.0
255.9434,734.0
256.0142,801.0
256.085,738.0
256.1558,829.0
256.2265,715.0
256.2973,807.0
256.3681,744.0
256.4388,857.0
256.5096,718.0
256.5804,815.0
256.6511,753.0
256.7219,870.0
256.7926,750.0
256.8634,817.0
256.9341,757.0
257.0049,834.0
257.0756,733.0
257.1463,855.0
257.2171,806.0
257.2878,834.0
257.3585,741.0
257.4292,822.0
257.5,749.0
257.5707,825.0
257.6414,747.0
257.7122,812.0
257.7828,709.0
257.8535,810.0
257.9243,734.0
257.995,817.0
258.0657,754.0
258.1364,764.0
258.2071,747.0
258.2777,803.0
258.3484,714.0
258.4191,831.0
258.4898,728.0
258.5605,811.0
258.6312,731.0
258.7018,801.0
258.7725,771.0
258.8432,796.0
258.9139,725.0
258.9845,739.0
259.0552,656.0
259.1259,791.0
259.1965,742.0
259.2672,790.0
259.3378,743.0
259.4085,758.0
259.4791,741.0
259.5497,731.0
259.6204,719.0
259.691,825.0
259.7617,729.0
259.8323,842.0
259.9029,705.0
259.9735,815.0
260.0442,724.0
260.1147,774.0
260.1854,783.0
260.256,798.0
260.3267,715.0
260.3972,824.0
260.4678,727.0
260.5384,831.0
260.6091,763.0
260.6796,813.0
260.7502,726.0
260.8208,817.0
260.8914,711.0
260.962,807.0
261.0326,728.0
261.1032,791.0
261.1737,750.0
261.2444,823.0
261.3149,757.0
261.3854,770.0
261.456,727.0
261.5266,821.0
261.5971,713.0
261.6677,820.0
261.7383,811.0
261.8088,825.0
261.8794,750.0
261.9499,812.0
262.0205,750.0
262.091,847.0
262.1615,760.0
262.2321,833.0
262.3026,774.0
262.3731,817.0
262.4437,733.0
262.5142,858.0
262.5847,746.0
262.6552,823.0
262.7257,726.0
262.7962,824.0
262.8668,753.0
262.9373,835.0
263.0078,759.0
263.0783,851.0
263.1488,776.0
263.2193,796.0
263.2898,745.0
263.3603,871.0
263.4307,729.0
263.5012,840.0
263.5717,776.0
263.6422,846.0
263.7127,783.0
263.7831,816.0
263.8536,766.0
263.9241,846.0
263.9945,747.0
264.065,863.0
264.1354,748.0
264.2059,809.0
264.2764,747.0
264.3468,837.0
264.4173,725.0
264.4877,862.0
264.5581,720.0
264.6286,837.0
264.699,752.0
264.7694,812.0
264.8399,733.0
264.9103,788.0
264.9807,726.0
265.0511,834.0
265.1216,752.0
265.192,816.0
265.2625,700.0
265.3328,863.0
265.4032,723.0
265.4736,810.0
265.5441,788.0
265.6144,790.0
265.6848,745.0
265.7552,793.0
265.8256,755.0
265.896,798.0
265.9664,711.0
266.0368,830.0
266.1071,766.0
266.1775,799.0
266.2479,745.0
266.3183,787.0
266.3886,707.0
266.459,807.0
266.5294,709.0
266.5998,828.0
266.6701,711.0
266.7404,845.0
266.8108,729.0
266.8812,816.0
266.9515,724.0
267.0219,821.0
267.0922,720.0
267.1625,790.0
267.2328,756.0
267.3032,846.0
267.3735,694.0
267.4438,804.0
267.5142,725.0
267.5845,806.0
267.6548,759.0
267.7251,823.0
267.7954,696.0
267.8657,774.0
267.936,751.0
268.0063,789.0
268.0766,729.0
268.1469,804.0
268.2172,731.0
268.2875,791.0
268.3578,718.0
268.4281,764.0
268.4984,694.0
268.5686,779.0
268.6389,735.0
268.7092,773.0
268.7794,730.0
268.8498,797.0
268.92,715.0
268.9902,799.0
269.0605,732.0
269.1308,771.0
269.201,748.0
269.2713,757.0
269.3415,733.0
269.4118,814.0
269.482,723.0
269.5523,822.0
269.6225,708.0
269.6927,804.0
269.7629,761.0
269.8332,769.0
269.9034,685.0
269.9736,792.0
270.0439,742.0
270.114,782.0
270.1843,752.0
270.2545,760.0
270.3247,742.0
270.3949,797.0
270.4651,733.0
270.5353,810.0
270.6055,714.0
270.6757,743.0
270.7459,736.0
270.8161,822.0
270.8863,773.0
270.9564,809.0
271.0266,765.0
271.0968,800.0
271.167,733.0
271.2371,844.0
271.3073,740.0
271.3775,850.0
271.4476,706.0
271.5178,846.0
271.588,744.0
271.6581,796.0
271.7282,759.0
271.7984,833.0
271.8685,731.0
271.9387,814.0
272.0088,758.0
272.0789,851.0
272.1491,780.0
272.2192,853.0
272.2893,793.0
272.3595,875.0
272.4296,777.0
272.4997,854.0
272.5698,732.0
272.64,818.0
272.7101,739.0
272.7802,830.0
272.8503,743.0
272.9204,840.0
272.9904,753.0
273.0605,853.0
273.1306,785.0
273.2007,845.0
273.2708,734.0
273.3409,866.0
273.411,732.0
273.481,766.0
273.5511,768.0
273.6212,843.0
273.6913,817.0
273.7614,860.0
273.8314,781.0
273.9015,872.0
273.9715,795.0
274.0416,820.0
274.1116,768.0
274.1817,836.0
274.2517,750.0
274.3217,901.0
274.3918,794.0
274.4619,896.0
274.5319,756.0
274.602,837.0
274.6719,758.0
274.742,835.0
274.812,836.0
274.882,856.0
274.952,782.0
275.0221,887.0
275.0921,777.0
275.1621,852.0
275.2321,784.0
275.3021,875.0
275.3721,745.0
275.4421,846.0
275.5121,744.0
275.5821,890.0
275.6521,775.0
275.722,852.0
275.792,777.0
275.862,810.0
275.932,749.0
276.002,829.0
276.0719,770.0
276.1418,816.0
276.2119,761.0
276.2818,836.0
276.3517,822.0
276.4218,841.0
276.4917,806.0
276.5616,832.0
276.6316,774.0
276.7015,849.0
276.7715,764.0
276.8414,789.0
276.9113,698.0
276.9813,809.0
277.0512,748.0
277.1211,832.0
277.191,782.0
277.261,827.0
277.3309,744.0
277.4008,858.0
277.4707,758.0
277.5406,807.0
277.6105,779.0
277.6804,806.0
277.7503,763.0
277.8202,853.0
277.8901,781.0
277.96,871.0
278.0299,797.0
278.0998,841.0
278.1697,760.0
278.2396,836.0
278.3094,743.0
278.3793,828.0
278.4492,760.0
278.519,822.0
278.5889,738.0
278.6588,849.0
278.7286,792.0
278.7985,808.0
278.8683,779.0
278.9382,851.0
279.0081,786.0
279.0779,848.0
279.1477,742.0
279.2176,799.0
279.2874,767.0
279.3572,857.0
279.4271,748.0
279.4969,891.0
279.5667,791.0
279.6365,855.0
279.7063,760.0
279.7762,874.0
279.846,801.0
279.9158,863.0
279.9856,775.0
280.0554,850.0
280.1252,809.0
280.195,838.0
280.2648,777.0
280.3346,857.0
280.4044,821.0
280.4742,844.0
280.544,805.0
280.6137,880.0
280.6835,822.0
280.7533,858.0
280.8231,816.0
280.8928,864.0
280.9626,768.0
281.0323,855.0
281.1021,777.0
281.1719,884.0
281.2416,844.0
281.3114,866.0
281.3811,821.0
281.4509,892.0
281.5206,766.0
281.5904,868.0
281.6601,761.0
281.7299,906.0
281.7996,784.0
281.8693,859.0
281.939,796.0
282.0088,870.0
282.0784,727.0
282.1482,846.0
282.2179,821.0
282.2876,864.0
282.3573,823.0
282.427,881.0
282.4967,801.0
282.5664,824.0
282.6361,818.0
282.7058,879.0
282.7755,812.0
282.8452,840.0
282.9149,810.0
282.9845,867.0
283.0542,815.0
283.1239,862.0
283.1936,782.0
283.2632,883.0
283.3329,767.0
283.4026,897.0
283.4722,829.0
283.5419,897.0
283.6115,823.0
283.6812,921.0
283.7508,856.0
283.8205,876.0
283.8901,790.0
283.9597,859.0
284.0294,770.0
284.099,912.0
284.1686,812.0
284.2383,885.0
284.3079,775.0
284.3775,809.0
284.4471,806.0
284.5168,900.0
284.5864,768.0
284.656,863.0
284.7256,806.0
284.7952,819.0
284.8648,794.0
284.9344,892.0
285.004,797.0
285.0736,857.0
285.1432,769.0
285.2128,847.0
285.2823,758.0
285.3519,908.0
285.4215,768.0
285.4911,864.0
285.5606,777.0
285.6302,853.0
285.6998,816.0
285.7693,864.0
285.8389,788.0
285.9084,870.0
285.978,760.0
286.0475,812.0
286.1171,758.0
286.1866,806.0
286.2562,781.0
286.3257,860.0
286.3952,750.0
286.4648,829.0
286.5343,769.0
286.6039,836.0
286.6733,738.0
286.7429,837.0
286.8124,736.0
286.8819,850.0
286.9514,776.0
287.0209,849.0
287.0904,750.0
287.1599,886.0
287.2294,823.0
287.299,850.0
287.3684,758.0
287.4379,833.0
287.5074,735.0
287.5769,843.0
287.6464,763.0
287.7159,857.0
287.7853,778.0
287.8548,841.0
287.9243,771.0
287.9937,815.0
288.0632,794.0
288.1327,869.0
288.2021,724.0
288.2716,851.0
288.341,743.0
288.4105,823.0
288.4799,770.0
288.5493,874.0
288.6188,739.0
288.6882,841.0
288.7577,749.0
288.8271,823.0
288.8965,735.0
288.9659,857.0
289.0354,738.0
289.1048,870.0
289.1742,753.0
289.2436,849.0
289.313,782.0
289.3824,877.0
289.4518,785.0
289.5212,846.0
289.5906,736.0
289.66,845.0
289.7294,788.0
289.7988,826.0
289.8682,809.0
289.9376,860.0
290.007,770.0
290.0764,870.0
290.1457,799.0
290.2151,904.0
290.2844,768.0
290.3538,855.0
290.4232,753.0
290.4925,819.0
290.5619,770.0
290.6312,866.0
290.7006,775.0
290.7699,880.0
290.8393,787.0
290.9086,875.0
290.978,839.0
291.0473,867.0
291.1166,762.0
291.1859,895.0
291.2553,737.0
291.3246,873.0
291.3939,815.0
291.4632,891.0
291.5325,775.0
291.6018,876.0
291.6712,760.0
291.7405,897.0
291.8098,805.0
291.8791,859.0
291.9484,814.0
292.0176,844.0
292.0869,826.0
292.1562,844.0
292.2255,811.0
292.2948,893.0
292.3641,766.0
292.4334,839.0
292.5026,784.0
292.5719,895.0
292.6412,778.0
292.7104,891.0
292.7797,797.0
292.8489,916.0
292.9182,815.0
292.9875,829.0
293.0567,785.0
293.1259,868.0
293.1952,788.0
293.2644,837.0
293.3336,818.0
293.4029,932.0
293.4721,796.0
293.5413,890.0
293.6106,818.0
293.6798,861.0
293.749,784.0
293.8182,900.0
293.8875,825.0
293.9566,903.0
294.0259,838.0
294.0951,890.0
294.1642,774.0
294.2334,876.0
294.3026,801.0
294.3718,873.0
294.441,807.0
294.5102,911.0
294.5794,790.0
294.6485,896.0
294.7177,806.0
294.7869,919.0
294.8561,785.0
294.9253,891.0
294.9944,766.0
295.0636,851.0
295.1327,789.0
295.2019,882.0
295.271,749.0
295.3402,829.0
295.4093,823.0
295.4785,868.0
295.5476,797.0
295.6168,856.0
295.6859,798.0
295.755,885.0
295.8241,736.0
295.8932,872.0
295.9623,820.0
296.0315,881.0
296.1006,800.0
296.1697,852.0
296.2388,798.0
296.3079,870.0
296.377,842.0
296.4461,886.0
296.5152,818.0
296.5843,889.0
296.6534,785.0
296.7225,879.0
296.7916,785.0
296.8606,899.0
296.9297,790.0
296.9988,858.0
297.0679,779.0
297.137,880.0
297.206,769.0
297.2751,891.0
297.3441,799.0
297.4132,853.0
297.4823,814.0
297.5513,878.0
297.6204,783.0
297.6894,891.0
297.7584,796.0
297.8275,889.0
297.8965,777.0
297.9655,903.0
298.0346,811.0
298.1036,884.0
298.1726,788.0
298.2417,862.0
298.3106,843.0
298.3797,885.0
298.4487,814.0
298.5177,920.0
298.5867,827.0
298.6557,897.0
298.7247,780.0
298.7937,883.0
298.8627,856.0
298.9317,867.0
299.0007,774.0
299.0696,842.0
299.1386,825.0
299.2076,882.0
299.2766,833.0
299.3456,873.0
299.4145,821.0
299.4835,876.0
299.5524,821.0
299.6214,886.0
299.6903,796.0
299.7593,882.0
299.8282,812.0
299.8972,862.0
299.9661,867.0
300.0351,892.0
300.104,809.0
300.173,900.0
300.2419,803.0
300.3108,903.0
300.3797,838.0
300.4487,916.0
300.5176,814.0
300.5865,841.0
300.6554,805.0
300.7243,919.0
300.7932,800.0
300.8621,871.0
300.931,820.0
300.9999,934.0
301.0688,819.0
301.1377,864.0
301.2066,831.0
301.2755,940.0
301.3444,793.0
301.4132,877.0
301.4821,794.0
301.551,891.0
301.6199,832.0
301.6887,940.0
301.7576,792.0
301.8265,901.0
301.8953,809.0
301.9642,880.0
302.033,822.0
302.1019,908.0
302.1707,814.0
302.2396,910.0
302.3084,822.0
302.3772,909.0
302.4461,844.0
302.5149,905.0
302.5837,803.0
302.6526,915.0
302.7214,818.0
302.7902,908.0
302.859,838.0
302.9278,869.0
302.9966,841.0
303.0654,937.0
303.1342,798.0
303.203,869.0
303.2718,788.0
303.3406,926.0
303.4094,870.0
303.4781,907.0
303.547,844.0
303.6158,882.0
303.6845,801.0
303.7533,887.0
303.8221,837.0
303.8908,936.0
303.9596,809.0
304.0284,912.0
304.0971,825.0
304.1659,904.0
304.2346,836.0
304.3034,868.0
304.3721,806.0
304.4409,908.0
304.5096,842.0
304.5784,896.0
304.6471,808.0
304.7158,935.0
304.7845,806.0
304.8533,939.0
304.922,804.0
304.9907,864.0
305.0594,817.0
305.1281,943.0
305.1969,809.0
305.2656,900.0
305.3343,836.0
305.403,894.0
305.4717,817.0
305.5403,898.0
305.609,822.0
305.6778,886.0
305.7464,807.0
305.8151,890.0
305.8838,801.0
305.9525,895.0
306.0211,817.0
306.0898,889.0
306.1585,843.0
306.2271,906.0
306.2958,805.0
306.3645,916.0
306.4331,784.0
306.5017,853.0
306.5704,817.0
306.6391,904.0
306.7077,814.0
306.7763,890.0
306.845,796.0
306.9136,904.0
306.9822,802.0
307.0508,865.0
307.1195,843.0
307.1881,884.0
307.2567,822.0
307.3253,899.0
307.3939,832.0
307.4625,903.0
307.5312,760.0
307.5998,919.0
307.6684,795.0
307.7369,840.0
307.8055,823.0
307.8741,892.0
307.9427,773.0
308.0113,899.0
308.0799,810.0
308.1484,907.0
308.217,776.0
308.2856,840.0
308.3542,779.0
308.4227,877.0
308.4913,819.0
308.5598,918.0
308.6284,784.0
308.6969,901.0
308.7655,840.0
308.834,887.0
308.9026,819.0
308.9711,870.0
309.0396,780.0
309.1082,884.0
309.1767,795.0
309.2452,923.0
309.3138,799.0
309.3823,904.0
309.4508,798.0
309.5193,867.0
309.5878,829.0
309.6563,857.0
309.7249,784.0
309.7933,905.0
309.8618,791.0
309.9303,902.0
309.9988,776.0
310.0673,910.0
310.1358,846.0
310.2043,873.0
310.2728,821.0
310.3412,880.0
310.4097,805.0
310.4781,877.0
310.5466,816.0
310.6151,884.0
310.6836,842.0
310.752,856.0
310.8205,788.0
310.8889,876.0
310.9574,822.0
311.0258,871.0
311.0943,798.0
311.1627,884.0
311.2311,772.0
311.2996,871.0
311.368,829.0
311.4364,873.0
311.5049,814.0
311.5733,878.0
311.6417,795.0
311.7101,914.0
311.7785,804.0
311.8469,865.0
311.9153,819.0
311.9837,911.0
312.0521,819.0
312.1205,890.0
312.1889,756.0
312.2573,891.0
312.3257,819.0
312.3941,873.0
312.4624,785.0
312.5308,820.0
312.5992,769.0
312.6675,877.0
312.7359,772.0
312.8043,862.0
312.8727,746.0
312.941,902.0
313.0093,742.0
313.0777,848.0
313.1461,793.0
313.2144,847.0
313.2827,745.0
313.3511,829.0
313.4194,758.0
313.4877,844.0
313.5561,757.0
313.6244,878.0
313.6927,760.0
313.761,839.0
313.8294,690.0
313.8977,794.0
313.966,693.0
314.0343,844.0
314.1026,759.0
314.1709,843.0
314.2392,759.0
314.3075,844.0
314.3758,828.0
314.4441,821.0
314.5124,755.0
314.5806,849.0
314.6489,752.0
314.7172,882.0
314.7855,806.0
314.8537,843.0
314.922,798.0
314.9903,858.0
315.0585,783.0
315.1268,887.0
315.195,783.0
315.2633,889.0
315.3315,831.0
315.3998,857.0
315.468,777.0
315.5362,849.0
315.6045,802.0
315.6727,817.0
315.7409,808.0
315.8092,864.0
315.8774,760.0
315.9456,849.0
316.0138,788.0
316.082,882.0
316.1502,774.0
316.2184,890.0
316.2867,792.0
316.3549,900.0
316.423,823.0
316.4912,903.0
316.5594,803.0
316.6276,914.0
316.6958,802.0
316.764,881.0
316.8322,767.0
316.9003,933.0
316.9685,771.0
317.0367,885.0
317.1049,828.0
317.173,915.0
317.2411,890.0
317.3093,905.0
317.3774,834.0
317.4456,890.0
317.5137,819.0
317.5819,889.0
317.65,788.0
317.7182,893.0
317.7863,833.0
317.8545,909.0
317.9225,826.0
317.9907,892.0
318.0588,820.0
318.1269,894.0
318.195,858.0
318.2631,877.0
318.3312,858.0
318.3994,880.0
318.4675,785.0
318.5355,909.0
318.6036,794.0
318.6717,891.0
318.7398,840.0
318.8079,930.0
318.876,802.0
318.9441,911.0
319.0121,861.0
319.0802,924.0
319.1483,821.0
319.2164,897.0
319.2844,831.0
319.3525,886.0
319.4205,840.0
319.4886,958.0
319.5566,858.0
319.6247,887.0
319.6927,829.0
319.7608,934.0
319.8288,831.0
319.8968,945.0
319.9648,811.0
320.0329,944.0
320.1009,813.0
320.1689,885.0
320.237,810.0
320.305,903.0
320.373,834.0
320.441,896.0
320.509,828.0
320.577,933.0
320.645,873.0
320.713,911.0
320.781,840.0
320.849,876.0
320.917,798.0
320.985,902.0
321.0529,831.0
321.1209,928.0
321.1889,828.0
321.2568,899.0
321.3248,859.0
321.3928,891.0
321.4608,814.0
321.5287,900.0
321.5966,787.0
321.6646,885.0
321.7325,801.0
321.8005,921.0
321.8684,816.0
321.9364,905.0
322.0043,824.0
322.0722,876.0
322.1401,834.0
322.2081,888.0
322.276,874.0
322.344,938.0
322.4119,858.0
322.4797,933.0
322.5477,828.0
322.6156,925.0
322.6835,833.0
322.7514,915.0
322.8193,800.0
322.8871,848.0
322.955,834.0
323.0229,936.0
323.0908,847.0
323.1588,944.0
323.2266,790.0
323.2945,925.0
323.3623,830.0
323.4302,963.0
323.4981,842.0
323.5659,915.0
323.6338,832.0
323.7016,915.0
323.7695,829.0
323.8373,915.0
323.9052,829.0
323.973,964.0
324.0409,793.0
324.1087,960.0
324.1765,851.0
324.2444,936.0
324.3122,850.0
324.38,930.0
324.4479,838.0
324.5157,959.0
324.5834,812.0
324.6512,941.0
324.7191,929.0
324.7869,885.0
324.8547,841.0
324.9225,918.0
324.9903,864.0
325.058,1002.0
325.1259,856.0
325.1936,934.0
325.2614,837.0
325.3292,940.0
325.397,885.0
325.4647,958.0
325.5325,873.0
325.6002,894.0
325.668,820.0
325.7358,910.0
325.8036,849.0
325.8713,918.0
325.939,837.0
326.0068,926.0
326.0745,813.0
326.1422,856.0
326.21,817.0
326.2777,966.0
326.3455,819.0
326.4132,920.0
326.4809,842.0
326.5486,940.0
326.6164,845.0
326.6841,901.0
326.7518,828.0
326.8195,951.0
326.8872,836.0
326.9549,912.0
327.0226,834.0
327.0903,928.0
327.158,853.0
327.2256,916.0
327.2933,864.0
327.361,957.0
327.4287,848.0
327.4964,952.0
327.5641,864.0
327.6317,930.0
327.6994,820.0
327.767,952.0
327.8347,832.0
327.9023,890.0
327.97,835.0
328.0376,944.0
328.1053,858.0
328.1729,912.0
328.2406,867.0
328.3082,909.0
328.3759,862.0
328.4435,867.0
328.5111,810.0
328.5787,903.0
328.6463,830.0
328.7139,921.0
328.7816,831.0
328.8492,935.0
328.9168,811.0
328.9843,879.0
329.052,826.0
329.1196,893.0
329.1872,843.0
329.2548,891.0
329.3224,825.0
329.3899,889.0
329.4575,780.0
329.5251,943.0
329.5927,839.0
329.6602,892.0
329.7278,844.0
329.7953,916.0
329.8629,837.0
329.9305,939.0
329.998,816.0
330.0656,902.0
330.1331,810.0
330.2007,892.0
330.2682,807.0
330.3358,886.0
330.4033,797.0
330.4708,883.0
330.5383,814.0
330.6059,909.0
330.6734,795.0
330.7409,830.0
330.8084,767.0
330.876,901.0
330.9435,812.0
331.011,873.0
331.0784,777.0
331.1459,863.0
331.2134,776.0
331.2809,844.0
331.3484,754.0
331.4159,876.0
331.4834,775.0
331.5508,860.0
331.6183,822.0
331.6858,819.0
331.7533,818.0
331.8207,867.0
331.8882,762.0
331.9557,895.0
332.0231,795.0
332.0906,899.0
332.1581,799.0
332.2255,839.0
332.2929,781.0
332.3604,905.0
332.4278,789.0
332.4952,829.0
332.5627,779.0
332.6301,876.0
332.6975,762.0
332.7649,858.0
332.8323,790.0
332.8997,907.0
332.9672,840.0
333.0346,885.0
333.102,797.0
333.1694,911.0
333.2368,801.0
333.3042,886.0
333.3716,774.0
333.439,918.0
333.5063,811.0
333.5737,898.0
333.6411,843.0
333.7085,879.0
333.7758,805.0
333.8432,885.0
333.9106,813.0
333.9779,907.0
334.0453,741.0
334.1126,910.0
334.18,800.0
334.2473,906.0
334.3147,833.0
334.382,882.0
334.4494,809.0
334.5167,896.0
334.584,829.0
334.6514,896.0
334.7187,795.0
334.786,900.0
334.8533,862.0
334.9206,868.0
334.9879,810.0
335.0553,903.0
335.1226,762.0
335.1899,875.0
335.2572,820.0
335.3245,869.0
335.3918,865.0
335.459,913.0
335.5263,803.0
335.5936,928.0
335.6609,844.0
335.7282,916.0
335.7954,848.0
335.8627,921.0
335.93,832.0
335.9973,894.0
336.0645,772.0
336.1318,906.0
336.199,812.0
336.2662,950.0
336.3335,849.0
336.4008,900.0
336.468,765.0
336.5352,930.0
336.6024,829.0
336.6697,894.0
336.7369,800.0
336.8041,896.0
336.8714,797.0
336.9386,882.0
337.0058,769.0
337.073,882.0
337.1402,806.0
337.2074,880.0
337.2746,847.0
337.3418,890.0
337.409,771.0
337.4762,893.0
337.5434,818.0
337.6106,837.0
337.6777,785.0
337.7449,893.0
337.8121,772.0
337.8792,867.0
337.9464,780.0
338.0135,876.0
338.0807,794.0
338.1479,900.0
338.2151,781.0
338.2822,882.0
338.3493,816.0
338.4165,865.0
338.4836,778.0
338.5508,896.0
338.6179,775.0
338.6851,850.0
338.7521,794.0
338.8193,935.0
338.8864,828.0
338.9535,877.0
339.0206,811.0
339.0878,853.0
339.1548,763.0
339.222,908.0
339.289,814.0
339.3561,929.0
339.4233,814.0
339.4904,923.0
339.5574,810.0
339.6245,863.0
339.6916,786.0
339.7587,871.0
339.8257,815.0
339.8929,875.0
339.9599,811.0
340.0269,851.0
340.094,753.0
340.1611,863.0
340.2281,729.0
340.2952,863.0
340.3622,781.0
340.4293,868.0
340.4963,815.0
340.5633,874.0
340.6304,809.0
340.6974,888.0
340.7645,772.0
340.8315,873.0
340.8985,805.0
340.9655,854.0
341.0325,756.0
341.0995,842.0
341.1665,794.0
341.2335,858.0
341.3005,787.0
341.3675,930.0
341.4345,743.0
341.5015,851.0
341.5685,777.0
341.6355,871.0
341.7025,781.0
341.7694,889.0
341.8364,773.0
341.9034,922.0
341.9704,815.0
342.0373,904.0
342.1043,758.0
342.1712,884.0
342.2382,793.0
342.3051,891.0
342.3721,794.0
342.4391,857.0
342.506,802.0
342.5729,880.0
342.6398,795.0
342.7068,873.0
342.7737,754.0
342.8406,871.0
342.9076,798.0
342.9745,855.0
343.0414,780.0
343.1083,879.0
343.1752,769.0
343.2421,851.0
343.309,785.0
343.3759,884.0
343.4428,797.0
343.5097,942.0
343.5766,807.0
343.6434,868.0
343.7104,818.0
343.7772,890.0
343.8441,809.0
343.9109,891.0
343.9778,826.0
344.0447,893.0
344.1116,837.0
344.1784,884.0
344.2453,821.0
344.3121,875.0
344.3789,776.0
344.4458,942.0
344.5127,816.0
344.5795,978.0
344.6463,845.0
344.7131,848.0
344.78,837.0
344.8468,922.0
344.9136,801.0
344.9805,892.0
345.0473,800.0
345.1141,922.0
345.1809,823.0
345.2477,910.0
345.3145,850.0
345.3813,890.0
345.4481,799.0
345.5149,931.0
345.5816,801.0
345.6484,877.0
345.7152,803.0
345.782,897.0
345.8488,839.0
345.9155,892.0
345.9823,812.0
346.049,861.0
346.1158,808.0
346.1826,911.0
346.2493,856.0
346.3161,916.0
346.3828,798.0
346.4496,894.0
346.5163,841.0
346.5831,864.0
346.6498,808.0
346.7165,913.0
346.7832,827.0
346.85,906.0
346.9167,802.0
346.9834,910.0
347.0501,804.0
347.1168,873.0
347.1835,851.0
347.2502,891.0
347.3169,817.0
347.3836,924.0
347.4503,794.0
347.517,905.0
347.5837,843.0
347.6504,928.0
347.717,810.0
347.7837,951.0
347.8504,830.0
347.9171,889.0
347.9837,822.0
348.0504,945.0
348.1171,785.0
348.1837,899.0
348.2504,876.0
348.317,917.0
348.3837,804.0
348.4503,914.0
348.5169,773.0
348.5836,924.0
348.6502,786.0
348.7169,860.0
348.7835,863.0
348.8501,876.0
348.9167,842.0
348.9833,927.0
349.0499,828.0
349.1165,905.0
349.1832,808.0
349.2498,903.0
349.3163,825.0
349.3829,872.0
349.4495,814.0
349.5161,876.0
349.5827,831.0
349.6493,958.0
349.7159,746.0
349.7824,935.0
349.849,832.0
349.9156,909.0
349.9821,831.0
350.0487,923.0
350.1153,871.0
350.1818,926.0
350.2484,836.0
350.3149,945.0
350.3814,809.0
350.448,891.0
350.5146,811.0
350.5811,896.0
350.6476,864.0
350.7141,924.0
350.7807,855.0
350.8472,907.0
350.9137,826.0
350.9802,922.0
351.0467,848.0
351.1132,887.0
351.1797,817.0
351.2462,927.0
351.3127,865.0
351.3792,940.0
351.4457,775.0
351.5122,944.0
351.5787,897.0
351.6451,946.0
351.7116,856.0
351.7781,965.0
351.8446,860.0
351.911,928.0
351.9775,873.0
352.044,950.0
352.1104,912.0
352.1769,964.0
352.2433,868.0
352.3098,952.0
352.3762,881.0
352.4427,974.0
352.5091,828.0
352.5755,962.0
352.642,860.0
352.7084,980.0
352.7748,881.0
352.8412,954.0
352.9077,903.0
352.9741,998.0
353.0405,870.0
353.1068,1010.0
353.1732,879.0
353.2396,1011.0
353.306,897.0
353.3724,943.0
353.4388,935.0
353.5052,985.0
353.5716,903.0
353.638,994.0
353.7043,957.0
353.7707,999.0
353.8371,894.0
353.9034,1037.0
353.9698,935.0
354.0362,1004.0
354.1025,989.0
354.1689,1011.0
354.2352,956.0
354.3016,1009.0
354.3679,952.0
354.4342,1040.0
354.5005,967.0
354.5669,1034.0
354.6332,1006.0
354.6996,1066.0
354.7659,996.0
354.8322,1011.0
354.8985,971.0
354.9648,1035.0
355.0311,971.0
355.0974,1074.0
355.1637,931.0
355.23,1055.0
355.2963,959.0
355.3625,1075.0
355.4289,919.0
355.4952,1057.0
355.5614,915.0
355.6277,1071.0
355.694,999.0
355.7603,1007.0
355.8265,944.0
355.8928,1059.0
355.959,945.0
356.0253,1065.0
356.0916,965.0
356.1578,1014.0
356.224,937.0
356.2903,1022.0
356.3565,934.0
356.4228,1008.0
356.489,915.0
356.5552,982.0
356.6214,891.0
356.6876,1007.0
356.7539,906.0
356.8201,1047.0
356.8863,931.0
356.9525,989.0
357.0187,871.0
357.0849,999.0
357.1511,925.0
357.2173,971.0
357.2835,912.0
357.3497,1007.0
357.4158,985.0
357.482,986.0
357.5482,917.0
357.6144,1028.0
357.6805,955.0
357.7467,1056.0
357.8128,1003.0
357.879,1086.0
357.9452,1086.0
358.0114,1207.0
358.0775,1168.0
358.1436,1327.0
358.2097,1235.0
358.2759,1427.0
358.342,1375.0
358.4082,1476.0
358.4743,1283.0
358.5404,1359.0
358.6065,1167.0
358.6726,1195.0
358.7387,1132.0
358.8049,1189.0
358.871,1153.0
358.9371,1193.0
359.0032,1025.0
359.0693,1054.0
359.1353,870.0
359.2014,918.0
359.2676,876.0
359.3336,918.0
359.3997,793.0
359.4658,891.0
359.5318,849.0
359.5979,898.0
359.664,795.0
359.7301,860.0
359.7961,855.0
359.8622,936.0
359.9282,815.0
359.9943,967.0
360.0603,828.0
360.1264,931.0
360.1924,836.0
360.2585,885.0
360.3244,829.0
360.3905,910.0
360.4565,807.0
360.5225,944.0
360.5885,804.0
360.6546,940.0
360.7206,821.0
360.7866,863.0
360.8526,828.0
360.9185,860.0
360.9846,800.0
361.0506,900.0
361.1165,807.0
361.1825,914.0
361.2485,818.0
361.3145,912.0
361.3805,804.0
361.4465,891.0
361.5124,819.0
361.5784,887.0
361.6443,788.0
361.7103,886.0
361.7762,833.0
361.8422,953.0
361.9082,797.0
361.9741,846.0
362.04,821.0
362.106,920.0
362.1719,834.0
362.2379,888.0
362.3038,827.0
362.3697,926.0
362.4356,748.0
362.5015,915.0
362.5675,832.0
362.6334,917.0
362.6993,825.0
362.7652,964.0
362.8311,793.0
362.8969,898.0
362.9629,788.0
363.0287,956.0
363.0947,824.0
363.1605,930.0
363.2264,825.0
363.2923,866.0
363.3582,828.0
363.424,844.0
363.4899,815.0
363.5557,894.0
363.6216,819.0
363.6874,882.0
363.7533,860.0
363.8191,879.0
363.885,827.0
363.9508,875.0
364.0167,793.0
364.0825,874.0
364.1483,793.0
364.2142,923.0
364.28,811.0
364.3458,928.0
364.4116,795.0
364.4774,854.0
364.5432,809.0
364.609,865.0
364.6748,826.0
364.7406,869.0
364.8065,849.0
364.8722,878.0
364.938,806.0
365.0038,885.0
365.0696,832.0
365.1354,902.0
365.2011,761.0
365.2669,911.0
365.3326,802.0
365.3984,860.0
365.4642,821.0
365.5299,902.0
365.5957,789.0
365.6614,909.0
365.7272,830.0
365.7929,930.0
365.8587,819.0
365.9244,946.0
365.9902,842.0
366.0559,933.0
366.1216,827.0
366.1873,903.0
366.253,803.0
366.3188,883.0
366.3845,844.0
366.4502,867.0
366.5159,833.0
366.5816,891.0
366.6473,827.0
366.713,840.0
366.7787,779.0
366.8444,938.0
366.91,797.0
366.9757,915.0
367.0414,806.0
367.1071,899.0
367.1727,815.0
367.2384,860.0
367.3041,809.0
367.3697,855.0
367.4354,779.0
367.501,897.0
367.5667,778.0
367.6323,890.0
367.698,797.0
367.7636,863.0
367.8292,784.0
367.8948,883.0
367.9605,761.0
368.0261,856.0
368.0918,783.0
368.1573,898.0
368.223,759.0
368.2885,910.0
368.3542,770.0
368.4198,851.0
368.4854,751.0
368.551,857.0
368.6165,763.0
368.6821,877.0
368.7477,789.0
368.8133,883.0
368.8789,804.0
368.9445,855.0
369.01,802.0
369.0756,906.0
369.1411,807.0
369.2067,854.0
369.2723,737.0
369.3379,845.0
369.4034,773.0
369.4689,831.0
369.5345,779.0
369.6,816.0
369.6656,784.0
369.7311,834.0
369.7966,775.0
369.8622,863.0
369.9277,802.0
369.9932,856.0
370.0587,767.0
370.1242,833.0
370.1897,767.0
370.2552,851.0
370.3207,762.0
370.3862,853.0
370.4517,814.0
370.5172,841.0
370.5827,831.0
370.6482,863.0
370.7136,776.0
370.7791,845.0
370.8446,772.0
370.9101,873.0
370.9756,757.0
371.041,890.0
371.1064,796.0
371.1719,858.0
371.2373,760.0
371.3028,908.0
371.3683,739.0
371.4337,864.0
371.4991,783.0
371.5646,876.0
371.63,768.0
371.6954,855.0
371.7608,768.0
371.8263,893.0
371.8917,810.0
371.9571,872.0
372.0225,773.0
372.0879,878.0
372.1533,814.0
372.2187,901.0
372.2841,776.0
372.3495,898.0
372.4149,831.0
372.4803,881.0
372.5457,806.0
372.611,900.0
372.6764,769.0
372.7418,911.0
372.8071,854.0
372.8725,927.0
372.9379,808.0
373.0032,880.0
373.0686,851.0
373.1339,931.0
373.1992,795.0
373.2646,926.0
373.3299,818.0
373.3953,899.0
373.4606,807.0
373.5259,911.0
373.5912,813.0
373.6566,899.0
373.7219,809.0
373.7872,903.0
373.8525,841.0
373.9178,926.0
373.9831,779.0
374.0484,952.0
374.1137,831.0
374.179,894.0
374.2443,805.0
374.3096,929.0
374.3749,848.0
374.4401,925.0
374.5054,823.0
374.5706,924.0
374.636,864.0
374.7012,926.0
374.7665,902.0
374.8318,879.0
374.897,862.0
374.9622,910.0
375.0275,813.0
375.0927,935.0
375.158,881.0
375.2232,937.0
375.2885,841.0
375.3537,908.0
375.4189,811.0
375.4841,946.0
375.5493,814.0
375.6145,946.0
375.6797,850.0
375.745,977.0
375.8101,857.0
375.8754,907.0
375.9406,885.0
376.0057,963.0
376.071,850.0
376.1361,946.0
376.2013,869.0
376.2665,960.0
376.3317,911.0
376.3969,903.0
376.462,853.0
376.5272,986.0
376.5923,904.0
376.6575,963.0
376.7226,865.0
376.7878,950.0
376.8529,905.0
376.9181,1020.0
376.9832,921.0
377.0483,926.0
377.1135,859.0
377.1786,992.0
377.2437,880.0
377.3089,970.0
377.374,915.0
377.4391,969.0
377.5042,942.0
377.5693,932.0
377.6344,873.0
377.6995,973.0
377.7646,918.0
377.8297,1029.0
377.8948,994.0
377.9599,986.0
378.025,876.0
378.09,989.0
378.1551,960.0
378.2202,1013.0
378.2852,957.0
378.3503,1058.0
378.4154,968.0
378.4804,1124.0
378.5455,948.0
378.6105,1062.0
378.6755,957.0
378.7406,1006.0
378.8057,1004.0
378.8707,1066.0
378.9357,1003.0
379.0008,1056.0
379.0658,1019.0
379.1308,1124.0
379.1958,1041.0
379.2609,1067.0
379.3259,1008.0
379.3908,1131.0
379.4558,1054.0
379.5208,1144.0
379.5858,1057.0
379.6509,1126.0
379.7159,1095.0
379.7808,1113.0
379.8458,1054.0
379.9108,1174.0
379.9758,1065.0
380.0407,1173.0
380.1057,1090.0
380.1707,1157.0
380.2356,1141.0
380.3006,1220.0
380.3655,1190.0
380.4305,1227.0
380.4955,1118.0
380.5604,1216.0
380.6253,1122.0
380.6902,1287.0
380.7552,1139.0
380.8201,1249.0
380.885,1226.0
380.95,1243.0
381.0149,1257.0
381.0798,1299.0
381.1447,1212.0
381.2096,1291.0
381.2745,1275.0
381.3394,1334.0
381.4043,1271.0
381.4692,1340.0
381.5341,1307.0
381.5989,1371.0
381.6638,1303.0
381.7287,1401.0
381.7936,1232.0
381.8585,1469.0
381.9233,1341.0
381.9882,1437.0
382.053,1378.0
382.1179,1490.0
382.1828,1364.0
382.2476,1496.0
382.3124,1350.0
382.3773,1499.0
382.4421,1435.0
382.507,1490.0
382.5718,1364.0
382.6366,1513.0
382.7014,1399.0
382.7663,1505.0
382.8311,1395.0
382.8959,1584.0
382.9607,1450.0
383.0255,1471.0
383.0903,1480.0
383.1551,1561.0
383.2199,1524.0
383.2847,1533.0
383.3495,1487.0
383.4143,1566.0
383.479,1464.0
383.5438,1516.0
383.6086,1434.0
383.6734,1569.0
383.7381,1471.0
383.8029,1656.0
383.8676,1540.0
383.9324,1615.0
383.9972,1568.0
384.0619,1593.0
384.1266,1550.0
384.1914,1670.0
384.2562,1533.0
384.3209,1636.0
384.3856,1584.0
384.4503,1747.0
384.515,1695.0
384.5797,1852.0
384.6445,1780.0
384.7092,1846.0
384.7739,1829.0
384.8386,2133.0
384.9033,2038.0
384.968,2188.0
385.0327,2003.0
385.0974,2050.0
385.162,1960.0
385.2267,2049.0
385.2914,2030.0
385.3561,2207.0
385.4208,2047.0
385.4854,1990.0
385.5501,1850.0
385.6147,1953.0
385.6794,1887.0
385.7441,2033.0
385.8087,2041.0
385.8734,2241.0
385.938,2164.0
386.0027,2327.0
386.0673,2372.0
386.1319,2174.0
386.1966,1910.0
386.2612,1858.0
386.3258,1695.0
386.3904,1798.0
386.455,1729.0
386.5196,1951.0
386.5843,1927.0
386.6489,2157.0
386.7135,2191.0
386.778,2444.0
386.8426,2469.0
386.9072,2695.0
386.9718,2770.0
387.0364,2865.0
387.101,2434.0
387.1655,1920.0
387.2301,1555.0
387.2946,1553.0
387.3593,1458.0
387.4238,1561.0
387.4884,1546.0
387.5529,1657.0
387.6175,1698.0
387.682,1897.0
387.7466,2054.0
387.8111,2299.0
387.8756,2344.0
387.9402,2699.0
388.0047,2874.0
388.0692,3087.0
388.1337,3211.0
388.1982,3412.0
388.2628,2903.0
388.3272,2155.0
388.3918,1461.0
388.4563,1231.0
388.5208,998.0
388.5852,977.0
388.6497,885.0
388.7142,912.0
388.7787,861.0
388.8432,929.0
388.9077,832.0
388.9721,916.0
389.0366,832.0
389.1011,908.0
389.1655,844.0
389.23,898.0
389.2944,838.0
389.3589,906.0
389.4233,802.0
389.4878,944.0
389.5522,795.0
389.6167,929.0
389.6811,835.0
389.7455,911.0
389.8099,846.0
389.8744,903.0
389.9388,826.0
390.0032,927.0
390.0676,857.0
390.132,957.0
390.1964,839.0
390.2608,887.0
390.3252,823.0
390.3896,882.0
390.454,870.0
390.5184,903.0
390.5827,779.0
390.6471,905.0
390.7115,857.0
390.7759,937.0
390.8402,843.0
390.9046,945.0
390.9689,826.0
391.0333,904.0
391.0977,848.0
391.162,891.0
391.2264,848.0
391.2907,931.0
391.355,870.0
391.4193,950.0
391.4837,853.0
391.548,940.0
391.6123,871.0
391.6767,933.0
391.741,829.0
391.8053,946.0
391.8696,834.0
391.9339,935.0
391.9982,890.0
392.0625,952.0
392.1268,897.0
392.1911,925.0
392.2553,853.0
392.3196,931.0
392.3839,844.0
392.4482,928.0
392.5125,842.0
392.5767,958.0
392.641,871.0
392.7053,892.0
392.7695,826.0
392.8338,985.0
392.898,849.0
392.9622,953.0
393.0265,866.0
393.0908,931.0
393.155,886.0
393.2192,1006.0
393.2834,976.0
393.3477,1025.0
393.4118,931.0
393.476,981.0
393.5403,833.0
393.6045,968.0
393.6687,838.0
393.7329,965.0
393.7971,846.0
393.8613,934.0
393.9255,870.0
393.9897,973.0
394.0539,852.0
394.118,949.0
394.1822,827.0
394.2464,933.0
394.3105,878.0
394.3747,936.0
394.4389,880.0
394.503,905.0
394.5672,832.0
394.6313,947.0
394.6954,920.0
394.7596,920.0
394.8238,834.0
394.8879,886.0
394.952,815.0
395.0161,904.0
395.0803,820.0
395.1444,875.0
395.2085,797.0
395.2726,887.0
395.3367,884.0
395.4008,928.0
395.4649,813.0
395.529,904.0
395.5931,813.0
395.6572,898.0
395.7213,792.0
395.7854,904.0
395.8495,822.0
395.9135,868.0
395.9776,859.0
396.0417,916.0
396.1057,842.0
396.1698,891.0
396.2339,838.0
396.2979,941.0
396.362,836.0
396.426,913.0
396.4901,841.0
396.5541,895.0
396.6181,886.0
396.6821,936.0
396.7462,876.0
396.8102,982.0
396.8743,853.0
396.9383,911.0
397.0023,822.0
397.0662,912.0
397.1302,823.0
397.1943,882.0
397.2583,827.0
397.3223,879.0
397.3862,784.0
397.4502,913.0
397.5142,837.0
397.5782,875.0
397.6422,837.0
397.7061,880.0
397.7701,820.0
397.8341,888.0
397.898,819.0
397.962,940.0
398.0259,816.0
398.0899,870.0
398.1538,832.0
398.2178,867.0
398.2817,854.0
398.3456,904.0
398.4096,779.0
398.4735,886.0
398.5374,827.0
398.6013,911.0
398.6653,820.0
398.7292,843.0
398.7931,825.0
398.857,925.0
398.9209,833.0
398.9848,932.0
399.0487,819.0
399.1125,930.0
399.1765,836.0
399.2404,850.0
399.3042,860.0
399.3681,935.0
399.432,803.0
399.4958,922.0
399.5597,819.0
399.6236,940.0
399.6875,871.0
399.7513,871.0
399.8152,899.0
399.879,963.0
399.9428,856.0
400.0067,915.0
400.0705,869.0
400.1343,919.0
400.1982,885.0
400.262,946.0
400.3258,849.0
400.3896,922.0
400.4534,849.0
400.5172,940.0
400.581,799.0
400.6448,946.0
400.7086,849.0
400.7724,928.0
400.8362,866.0
400.9,933.0
400.9638,803.0
401.0276,932.0
401.0913,878.0
401.1551,959.0
401.2189,828.0
401.2826,943.0
401.3464,860.0
401.4102,939.0
401.4739,857.0
401.5376,924.0
401.6014,881.0
401.6651,960.0
401.7289,821.0
401.7926,964.0
401.8564,852.0
401.92,946.0
401.9838,842.0
402.0475,936.0
402.1112,870.0
402.175,924.0
402.2386,819.0
402.3023,931.0
402.366,872.0
402.4297,977.0
402.4934,868.0
402.5571,939.0
402.6208,911.0
402.6845,902.0
402.7482,844.0
402.8118,944.0
402.8755,865.0
402.9392,963.0
403.0028,845.0
403.0665,906.0
403.1301,854.0
403.1938,934.0
403.2574,875.0
403.3211,976.0
403.3847,841.0
403.4484,939.0
403.512,891.0
403.5756,941.0
403.6393,924.0
403.7029,938.0
403.7665,891.0
403.8301,957.0
403.8937,840.0
403.9573,968.0
404.0209,869.0
404.0845,989.0
404.1481,844.0
404.2117,944.0
404.2753,904.0
404.3389,972.0
404.4024,866.0
404.466,916.0
404.5296,898.0
404.5932,940.0
404.6567,878.0
404.7203,937.0
404.7838,868.0
404.8474,971.0
404.9109,828.0
404.9745,907.0
405.0381,876.0
405.1016,946.0
405.1651,805.0
405.2286,898.0
405.2922,865.0
405.3557,928.0
405.4193,863.0
405.4828,950.0
405.5462,903.0
405.6097,950.0
405.6733,858.0
405.7368,1015.0
405.8003,857.0
405.8638,911.0
405.9272,833.0
405.9907,869.0
406.0542,881.0
406.1177,932.0
406.1812,847.0
406.2446,954.0
406.3081,890.0
406.3716,908.0
406.435,836.0
406.4985,909.0
406.562,873.0
406.6254,929.0
406.6888,868.0
406.7523,926.0
406.8157,898.0
406.8791,976.0
406.9426,864.0
407.006,938.0
407.0694,883.0
407.1328,971.0
407.1962,920.0
407.2597,974.0
407.3231,933.0
407.3865,1031.0
407.4499,877.0
407.5133,974.0
407.5767,925.0
407.64,980.0
407.7034,897.0
407.7668,1016.0
407.8302,909.0
407.8936,996.0
407.9569,926.0
408.0203,946.0
408.0836,914.0
408.147,996.0
408.2104,924.0
408.2737,983.0
408.3371,937.0
408.4004,1003.0
408.4637,900.0
408.5271,948.0
408.5905,913.0
408.6537,982.0
408.7171,869.0
408.7804,1012.0
408.8437,908.0
408.907,984.0
408.9703,873.0
409.0336,986.0
409.0969,936.0
409.1602,998.0
409.2235,950.0
409.2868,990.0
409.3501,961.0
409.4134,1008.0
409.4767,909.0
409.5399,1009.0
409.6032,881.0
409.6665,1010.0
409.7297,898.0
409.793,1044.0
409.8563,880.0
409.9195,978.0
409.9827,953.0
410.046,1005.0
410.1092,930.0
410.1725,1002.0
410.2357,945.0
410.299,1014.0
410.3622,922.0
410.4254,1009.0
410.4886,919.0
410.5518,960.0
410.615,903.0
410.6782,1025.0
410.7414,956.0
410.8046,1005.0
410.8678,924.0
410.931,987.0
410.9942,906.0
411.0574,1008.0
411.1205,936.0
411.1837,998.0
411.2469,957.0
411.3101,951.0
411.3733,906.0
411.4364,990.0
411.4995,863.0
411.5627,996.0
411.6259,879.0
411.689,1011.0
411.7521,919.0
411.8153,983.0
411.8784,978.0
411.9415,965.0
412.0046,929.0
412.0678,961.0
412.1309,875.0
412.194,937.0
412.2571,918.0
412.3203,964.0
412.3833,872.0
412.4464,987.0
412.5096,936.0
412.5727,979.0
412.6357,918.0
412.6988,1004.0
412.7619,931.0
412.825,1008.0
412.8881,891.0
412.9511,961.0
413.0142,922.0
413.0772,943.0
413.1403,864.0
413.2033,1015.0
413.2664,950.0
413.3294,993.0
413.3925,889.0
413.4555,1036.0
413.5186,937.0
413.5816,955.0
413.6446,936.0
413.7076,1004.0
413.7707,858.0
413.8337,1010.0
413.8967,899.0
413.9597,972.0
414.0227,954.0
414.0857,1031.0
414.1487,895.0
414.2117,997.0
414.2747,892.0
414.3376,1005.0
414.4006,921.0
414.4636,1019.0
414.5266,954.0
414.5896,1018.0
414.6525,994.0
414.7155,1054.0
414.7784,977.0
414.8414,1093.0
414.9044,1043.0
414.9673,1145.0
415.0303,1039.0
415.0932,1134.0
415.1561,1038.0
415.2191,1029.0
415.282,1000.0
415.3449,1045.0
415.4079,923.0
415.4708,1055.0
415.5336,980.0
415.5966,1076.0
415.6595,1044.0
415.7224,1089.0
415.7853,991.0
415.8482,1024.0
415.9111,908.0
415.9739,996.0
416.0368,1030.0
416.0997,1031.0
416.1626,976.0
416.2255,1004.0
416.2883,1022.0
416.3512,1059.0
416.414,1009.0
416.4769,1046.0
416.5397,1052.0
416.6026,1149.0
416.6654,1025.0
416.7283,1088.0
416.7911,961.0
416.8539,980.0
416.9167,966.0
416.9796,1040.0
417.0424,944.0
417.1052,1030.0
417.168,972.0
417.2308,1059.0
417.2936,978.0
417.3564,1032.0
417.4193,981.0
417.4821,1028.0
417.5448,971.0
417.6076,1089.0
417.6704,1010.0
417.7332,1152.0
417.796,1050.0
417.8587,1127.0
417.9215,1076.0
417.9842,1159.0
418.047,1016.0
418.1098,1063.0
418.1725,959.0
418.2353,974.0
418.298,881.0
418.3607,982.0
418.4235,879.0
418.4862,1023.0
418.549,931.0
418.6117,996.0
418.6744,903.0
418.7371,1007.0
418.7998,913.0
418.8625,1013.0
418.9252,988.0
418.9879,963.0
419.0507,937.0
419.1133,980.0
419.176,980.0
419.2387,1018.0
419.3014,971.0
419.3641,1146.0
419.4268,1112.0
419.4894,1196.0
419.5521,1095.0
419.6147,1181.0
419.6774,981.0
419.7401,1034.0
419.8027,894.0
419.8654,949.0
419.928,874.0
419.9906,960.0
420.0533,859.0
420.1159,927.0
420.1785,866.0
420.2411,973.0
420.3038,852.0
420.3664,913.0
420.429,879.0
420.4916,939.0
420.5542,860.0
420.6168,972.0
420.6794,884.0
420.742,901.0
420.8046,889.0
420.8672,964.0
420.9297,902.0
420.9923,1014.0
421.0549,902.0
421.1175,990.0
421.18,920.0
421.2426,1019.0
421.3052,1011.0
421.3677,1073.0
421.4303,1021.0
421.4928,1106.0
421.5554,925.0
421.6179,989.0
421.6804,868.0
421.743,836.0
421.8055,833.0
421.868,872.0
421.9305,782.0
421.993,848.0
422.0556,820.0
422.1181,838.0
422.1806,758.0
422.2431,887.0
422.3055,796.0
422.368,856.0
422.4305,797.0
422.493,867.0
422.5555,801.0
422.618,922.0
422.6805,826.0
422.7429,882.0
422.8054,841.0
422.8679,874.0
422.9303,755.0
422.9928,927.0
423.0552,785.0
423.1177,882.0
423.1801,767.0
423.2425,887.0
423.305,769.0
423.3674,878.0
423.4298,803.0
423.4922,859.0
423.5547,797.0
423.617,868.0
423.6795,793.0
423.7419,865.0
423.8043,837.0
423.8667,876.0
423.9291,814.0
423.9915,888.0
424.0538,838.0
424.1163,928.0
424.1786,792.0
424.241,871.0
424.3034,858.0
424.3658,933.0
424.4281,832.0
424.4905,902.0
424.5529,875.0
424.6152,909.0
424.6775,864.0
424.7399,946.0
424.8022,855.0
424.8646,905.0
424.9269,896.0
424.9892,928.0
425.0515,881.0
425.1139,899.0
425.1762,826.0
425.2385,890.0
425.3008,864.0
425.3631,942.0
425.4254,849.0
425.4877,901.0
425.55,831.0
425.6123,898.0
425.6746,885.0
425.7369,974.0
425.7992,888.0
425.8614,923.0
425.9237,865.0
425.9859,934.0
426.0482,913.0
426.1105,934.0
426.1727,853.0
426.235,962.0
426.2972,857.0
426.3595,912.0
426.4217,891.0
426.4839,948.0
426.5462,873.0
426.6084,928.0
426.6706,892.0
426.7328,959.0
426.795,888.0
426.8573,982.0
426.9195,846.0
426.9817,948.0
427.0439,855.0
427.1061,930.0
427.1683,861.0
427.2305,933.0
427.2927,848.0
427.3549,905.0
427.417,845.0
427.4792,940.0
427.5413,856.0
427.6035,912.0
427.6657,852.0
427.7278,946.0
427.79,878.0
427.8521,950.0
427.9142,806.0
427.9764,948.0
428.0386,855.0
428.1007,929.0
428.1628,895.0
428.2249,925.0
428.287,846.0
428.3492,927.0
428.4113,818.0
428.4734,971.0
428.5355,874.0
428.5976,889.0
428.6597,837.0
428.7218,927.0
428.7839,875.0
428.846,895.0
428.9081,846.0
428.9702,930.0
429.0322,815.0
429.0943,897.0
429.1563,801.0
429.2184,897.0
429.2805,839.0
429.3425,861.0
429.4046,802.0
429.4666,860.0
429.5287,820.0
429.5908,937.0
429.6528,788.0
429.7148,923.0
429.7768,856.0
429.8388,858.0
429.9008,818.0
429.9629,880.0
430.0249,781.0
430.0869,858.0
430.1489,837.0
430.2109,901.0
430.2729,794.0
430.3349,910.0
430.3969,763.0
430.4589,896.0
430.5208,824.0
430.5828,905.0
430.6448,769.0
430.7068,879.0
430.7688,804.0
430.8307,876.0
430.8926,826.0
430.9546,904.0
431.0165,787.0
431.0785,884.0
431.1404,774.0
431.2024,921.0
431.2643,826.0
431.3262,939.0
431.3881,820.0
431.4501,843.0
431.512,770.0
431.5739,871.0
431.6358,783.0
431.6977,860.0
431.7596,761.0
431.8215,873.0
431.8834,821.0
431.9453,845.0
432.0072,802.0
432.0691,852.0
432.131,742.0
432.1928,850.0
432.2547,766.0
432.3165,855.0
432.3784,728.0
432.4403,873.0
432.5021,817.0
432.564,873.0
432.6258,777.0
432.6876,878.0
432.7495,722.0
432.8113,834.0
432.8732,762.0
432.935,832.0
432.9968,759.0
433.0586,845.0
433.1204,781.0
433.1823,853.0
433.2441,770.0
433.3059,855.0
433.3677,816.0
433.4295,822.0
433.4912,792.0
433.5531,847.0
433.6148,749.0
433.6766,874.0
433.7384,745.0
433.8001,872.0
433.8619,765.0
433.9237,922.0
433.9854,739.0
434.0472,852.0
434.1089,792.0
434.1707,836.0
434.2324,799.0
434.2942,869.0
434.3559,778.0
434.4177,908.0
434.4794,782.0
434.5411,917.0
434.6028,796.0
434.6645,829.0
434.7263,782.0
434.788,923.0
434.8497,848.0
434.9113,876.0
434.973,792.0
435.0347,865.0
435.0965,797.0
435.1581,870.0
435.2198,820.0
435.2815,880.0
435.3431,820.0
435.4048,898.0
435.4665,797.0
435.5282,868.0
435.5898,876.0
435.6515,866.0
435.7131,825.0
435.7747,904.0
435.8363,812.0
435.898,900.0
435.9597,815.0
436.0213,916.0
436.0829,840.0
436.1445,952.0
436.2061,886.0
436.2678,957.0
436.3294,884.0
436.391,990.0
436.4525,930.0
436.5141,933.0
436.5757,830.0
436.6373,918.0
436.6989,837.0
436.7605,913.0
436.8221,834.0
436.8836,911.0
436.9452,837.0
437.0067,912.0
437.0684,882.0
437.1299,891.0
437.1914,797.0
437.253,926.0
437.3145,820.0
437.3761,895.0
437.4376,739.0
437.4992,836.0
437.5607,777.0
437.6222,822.0
437.6837,803.0
437.7452,843.0
437.8067,808.0
437.8683,858.0
437.9298,799.0
437.9913,899.0
438.0528,791.0
438.1143,888.0
438.1757,819.0
438.2372,845.0
438.2987,807.0
438.3602,837.0
438.4217,802.0
438.4831,821.0
438.5446,758.0
438.6061,859.0
438.6675,764.0
438.729,813.0
438.7904,766.0
438.8519,843.0
438.9133,781.0
438.9747,834.0
439.0362,768.0
439.0976,845.0
439.159,741.0
439.2204,850.0
439.2819,707.0
439.3433,880.0
439.4047,770.0
439.4661,836.0
439.5275,731.0
439.5889,853.0
439.6503,756.0
439.7116,869.0
439.7731,768.0
439.8345,853.0
439.8958,772.0
439.9572,842.0
440.0186,782.0
440.0799,848.0
440.1413,806.0
440.2027,872.0
440.264,783.0
440.3253,843.0
440.3867,764.0
440.448,851.0
440.5093,748.0
440.5707,857.0
440.632,757.0
440.6934,842.0
440.7546,799.0
440.816,856.0
440.8773,760.0
440.9386,856.0
440.9999,819.0
441.0612,845.0
441.1225,790.0
441.1838,874.0
441.2451,802.0
441.3063,857.0
441.3677,804.0
441.429,891.0
441.4902,755.0
441.5515,889.0
441.6127,808.0
441.674,850.0
441.7353,819.0
441.7965,855.0
441.8578,776.0
441.919,838.0
441.9802,797.0
442.0414,885.0
442.1027,777.0
442.164,910.0
442.2252,769.0
442.2864,856.0
442.3476,772.0
442.4088,846.0
442.47,757.0
442.5312,890.0
442.5924,804.0
442.6536,844.0
442.7148,809.0
442.776,850.0
442.8372,773.0
442.8984,854.0
442.9596,788.0
443.0207,850.0
443.0819,773.0
443.143,832.0
443.2042,781.0
443.2653,890.0
443.3265,777.0
443.3877,866.0
443.4488,740.0
443.5099,848.0
443.5711,779.0
443.6322,854.0
443.6934,765.0
443.7545,852.0
443.8156,750.0
443.8767,833.0
443.9378,801.0
443.9989,902.0
444.0601,780.0
444.1212,893.0
444.1822,786.0
444.2433,852.0
444.3044,821.0
444.3654,892.0
444.4265,784.0
444.4877,879.0
444.5487,772.0
444.6098,888.0
444.6708,826.0
444.7319,900.0
444.7929,757.0
444.854,862.0
444.915,798.0
444.9761,877.0
445.0371,790.0
445.0981,852.0
445.1592,763.0
445.2203,847.0
445.2812,798.0
445.3423,871.0
445.4033,794.0
445.4643,863.0
445.5253,787.0
445.5862,875.0
445.6473,791.0
445.7083,885.0
445.7693,759.0
445.8303,849.0
445.8912,787.0
445.9522,839.0
446.0132,818.0
446.0742,867.0
446.1352,786.0
446.1961,875.0
446.257,761.0
446.318,895.0
446.379,775.0
446.4399,829.0
446.5009,781.0
446.5618,838.0
446.6227,753.0
446.6836,847.0
446.7446,742.0
446.8055,846.0
446.8664,787.0
446.9273,870.0
446.9883,787.0
447.0491,829.0
447.11,767.0
447.171,865.0
447.2319,761.0
447.2927,875.0
447.3536,744.0
447.4145,851.0
447.4753,774.0
447.5363,822.0
447.5971,781.0
447.658,830.0
447.7188,739.0
447.7797,859.0
447.8405,741.0
447.9014,814.0
447.9623,743.0
448.0231,785.0
448.0839,707.0
448.1447,812.0
448.2056,719.0
448.2664,843.0
448.3272,750.0
448.3881,777.0
448.4489,734.0
448.5096,845.0
448.5705,711.0
448.6312,743.0
448.6921,774.0
448.7529,857.0
448.8137,754.0
448.8744,813.0
448.9352,705.0
448.9959,847.0
449.0567,770.0
449.1175,849.0
449.1783,744.0
449.239,802.0
449.2998,739.0
449.3605,839.0
449.4213,662.0
449.4821,840.0
449.5428,685.0
449.6035,855.0
449.6642,717.0
449.725,821.0
449.7857,734.0
449.8464,816.0
449.9071,713.0
449.9679,838.0
450.0285,744.0
450.0892,849.0
450.1499,770.0
450.2106,752.0
450.2714,715.0
450.332,746.0
450.3927,756.0
450.4534,807.0
450.514,724.0
450.5747,827.0
450.6354,765.0
450.696,756.0
450.7567,731.0
450.8174,796.0
450.878,725.0
450.9386,830.0
450.9993,726.0
451.0599,807.0
451.1206,718.0
451.1812,802.0
451.2418,747.0
451.3024,767.0
451.363,691.0
451.4236,771.0
451.4843,679.0
451.5449,799.0
451.6054,709.0
451.666,811.0
451.7267,739.0
451.7873,779.0
451.8478,713.0
451.9084,820.0
451.969,717.0
452.0295,787.0
452.0901,755.0
452.1507,810.0
452.2113,670.0
452.2718,750.0
452.3324,709.0
452.3929,785.0
452.4534,711.0
452.5139,815.0
452.5745,715.0
452.635,806.0
452.6956,746.0
452.7561,763.0
452.8166,751.0
452.8771,803.0
452.9377,701.0
452.9981,787.0
453.0586,711.0
453.1191,837.0
453.1796,729.0
453.2401,796.0
453.3006,717.0
453.3611,769.0
453.4216,692.0
453.4821,824.0
453.5425,726.0
453.6029,826.0
453.6634,724.0
453.7239,772.0
453.7844,754.0
453.8448,801.0
453.9052,721.0
453.9656,846.0
454.0261,738.0
454.0866,863.0
454.147,706.0
454.2074,838.0
454.2678,717.0
454.3282,799.0
454.3886,711.0
454.449,831.0
454.5095,717.0
454.5699,812.0
454.6302,779.0
454.6906,835.0
454.751,739.0
454.8114,822.0
454.8718,740.0
454.9322,793.0
454.9925,751.0
455.0529,801.0
455.1133,767.0
455.1736,806.0
455.234,778.0
455.2943,811.0
455.3547,784.0
455.415,849.0
455.4753,763.0
455.5357,815.0
455.5959,721.0
455.6563,854.0
455.7167,718.0
455.777,865.0
455.8373,801.0
455.8976,772.0
455.9579,787.0
456.0182,809.0
456.0785,748.0
456.1388,886.0
456.1991,704.0
456.2593,833.0
456.3196,778.0
456.3799,898.0
456.4402,797.0
456.5005,838.0
456.5607,724.0
456.621,815.0
456.6812,781.0
456.7414,848.0
456.8018,783.0
456.862,800.0
456.9222,743.0
456.9825,842.0
457.0426,706.0
457.1028,811.0
457.1631,744.0
457.2234,857.0
457.2835,761.0
457.3438,827.0
457.404,763.0
457.4641,858.0
457.5244,758.0
457.5846,854.0
457.6447,743.0
457.7049,849.0
457.7651,791.0
457.8253,839.0
457.8854,697.0
457.9456,837.0
458.0058,756.0
458.0659,843.0
458.1261,767.0
458.1862,866.0
458.2464,756.0
458.3066,842.0
458.3667,785.0
458.4268,839.0
458.4869,801.0
458.5471,720.0
458.6072,617.0
458.6674,688.0
458.7274,605.0
458.7876,672.0
458.8477,598.0
458.9077,682.0
458.9679,634.0
459.0279,676.0
459.0881,622.0
459.1481,695.0
459.2082,587.0
459.2683,701.0
459.3283,600.0
459.3884,685.0
459.4485,621.0
459.5086,681.0
459.5686,584.0
459.6287,662.0
459.6887,628.0
459.7487,688.0
459.8088,624.0
459.8688,694.0
459.9289,637.0
459.9889,698.0
460.0489,634.0
460.1089,730.0
460.1689,633.0
460.229,684.0
460.289,593.0
