Laser settings:
	Diode frequency:	5 Hz
	Pulses fired:		105
	Q-Switch blanking:	5
	Q-Switch delay:		201 μs
	Q-Switch presync:	1 μs
Spectrometer settings:
	Integration time:	0.0090 ms
	Integration delay:	0.000 ns
	Averaging:		1
	Trigger mode:		External
	Dynamic Dark Correction:		Disabled


wavelength,intensity
184.9409,628.0
185.0142,607.0
185.0875,637.0
185.1608,618.0
185.2341,654.0
185.3074,598.0
185.3807,727.0
185.454,618.0
185.5273,683.0
185.6006,597.0
185.6739,651.0
185.7472,587.0
185.8205,689.0
185.8938,627.0
185.9671,696.0
186.0403,599.0
186.1136,673.0
186.1869,592.0
186.2601,677.0
186.3334,586.0
186.4067,679.0
186.4799,568.0
186.5532,692.0
186.6265,604.0
186.6997,675.0
186.773,633.0
186.8462,686.0
186.9195,604.0
186.9928,690.0
187.066,631.0
187.1392,654.0
187.2125,617.0
187.2857,690.0
187.3589,599.0
187.4322,695.0
187.5054,643.0
187.5786,692.0
187.6519,625.0
187.7251,685.0
187.7983,599.0
187.8715,717.0
187.9447,616.0
188.018,728.0
188.0912,598.0
188.1644,729.0
188.2376,600.0
188.3108,664.0
188.384,602.0
188.4572,681.0
188.5304,664.0
188.6036,704.0
188.6768,670.0
188.75,737.0
188.8232,640.0
188.8963,686.0
188.9695,666.0
189.0427,733.0
189.1159,590.0
189.1891,732.0
189.2623,653.0
189.3354,717.0
189.4086,640.0
189.4818,711.0
189.5549,630.0
189.6281,684.0
189.7012,624.0
189.7744,706.0
189.8476,659.0
189.9207,693.0
189.9939,700.0
190.067,722.0
190.1402,667.0
190.2133,689.0
190.2864,672.0
190.3596,770.0
190.4327,663.0
190.5059,687.0
190.579,664.0
190.6521,710.0
190.7253,639.0
190.7984,729.0
190.8715,675.0
190.9446,720.0
191.0177,667.0
191.0908,693.0
191.164,628.0
191.2371,759.0
191.3102,652.0
191.3833,715.0
191.4564,648.0
191.5295,730.0
191.6026,633.0
191.6757,750.0
191.7488,673.0
191.8219,754.0
191.895,649.0
191.968,778.0
192.0411,689.0
192.1142,772.0
192.1873,621.0
192.2604,770.0
192.3334,655.0
192.4065,750.0
192.4796,694.0
192.5527,732.0
192.6257,665.0
192.6988,789.0
192.7718,727.0
192.8449,791.0
192.918,770.0
192.991,936.0
193.064,964.0
193.1371,1037.0
193.2101,925.0
193.2832,937.0
193.3562,812.0
193.4292,860.0
193.5023,736.0
193.5753,828.0
193.6484,720.0
193.7214,818.0
193.7944,708.0
193.8674,792.0
193.9405,672.0
194.0135,780.0
194.0865,707.0
194.1595,820.0
194.2325,656.0
194.3055,788.0
194.3785,700.0
194.4515,757.0
194.5246,684.0
194.5975,752.0
194.6705,684.0
194.7435,732.0
194.8165,670.0
194.8895,762.0
194.9625,666.0
195.0355,782.0
195.1085,690.0
195.1815,747.0
195.2544,671.0
195.3274,753.0
195.4004,683.0
195.4734,759.0
195.5463,661.0
195.6193,799.0
195.6923,728.0
195.7652,767.0
195.8382,735.0
195.9111,784.0
195.9841,675.0
196.057,802.0
196.13,695.0
196.2029,775.0
196.2759,674.0
196.3488,707.0
196.4218,709.0
196.4947,777.0
196.5676,741.0
196.6406,771.0
196.7135,667.0
196.7864,814.0
196.8593,662.0
196.9323,752.0
197.0052,719.0
197.0781,779.0
197.151,663.0
197.2239,739.0
197.2969,656.0
197.3697,761.0
197.4427,683.0
197.5156,771.0
197.5885,727.0
197.6614,750.0
197.7343,664.0
197.8072,767.0
197.88,659.0
197.9529,707.0
198.0258,713.0
198.0987,796.0
198.1716,713.0
198.2445,753.0
198.3173,697.0
198.3902,736.0
198.4631,666.0
198.5359,780.0
198.6088,650.0
198.6817,766.0
198.7545,692.0
198.8274,723.0
198.9003,700.0
198.9731,741.0
199.046,687.0
199.1188,760.0
199.1917,701.0
199.2645,802.0
199.3373,704.0
199.4102,775.0
199.483,722.0
199.5559,728.0
199.6287,729.0
199.7015,736.0
199.7744,717.0
199.8472,723.0
199.92,630.0
199.9928,750.0
200.0656,700.0
200.1385,702.0
200.2113,661.0
200.2841,775.0
200.3569,663.0
200.4297,742.0
200.5025,689.0
200.5753,746.0
200.6481,667.0
200.7209,755.0
200.7937,687.0
200.8665,742.0
200.9393,663.0
201.0121,749.0
201.0848,691.0
201.1576,815.0
201.2304,673.0
201.3032,757.0
201.3759,694.0
201.4487,741.0
201.5215,757.0
201.5943,780.0
201.667,688.0
201.7398,755.0
201.8125,680.0
201.8853,768.0
201.958,634.0
202.0308,800.0
202.1035,713.0
202.1763,754.0
202.249,738.0
202.3218,729.0
202.3945,682.0
202.4673,774.0
202.54,727.0
202.6127,737.0
202.6855,654.0
202.7582,771.0
202.8309,675.0
202.9036,749.0
202.9764,626.0
203.0491,755.0
203.1218,643.0
203.1945,777.0
203.2672,710.0
203.3399,765.0
203.4126,683.0
203.4853,771.0
203.558,674.0
203.6307,727.0
203.7034,690.0
203.7761,751.0
203.8488,709.0
203.9215,755.0
203.9942,703.0
204.0669,755.0
204.1395,669.0
204.2122,772.0
204.2849,703.0
204.3576,779.0
204.4302,697.0
204.5029,756.0
204.5756,734.0
204.6482,743.0
204.7209,701.0
204.7935,752.0
204.8662,650.0
204.9389,765.0
205.0115,709.0
205.0842,778.0
205.1568,700.0
205.2294,747.0
205.3021,718.0
205.3747,778.0
205.4474,693.0
205.52,754.0
205.5926,659.0
205.6653,793.0
205.7379,665.0
205.8105,744.0
205.8831,715.0
205.9557,713.0
206.0284,734.0
206.101,756.0
206.1736,698.0
206.2462,769.0
206.3188,654.0
206.3914,733.0
206.464,714.0
206.5366,763.0
206.6092,638.0
206.6818,715.0
206.7544,678.0
206.827,749.0
206.8996,671.0
206.9721,733.0
207.0447,729.0
207.1173,727.0
207.1899,702.0
207.2625,791.0
207.335,692.0
207.4076,796.0
207.4802,709.0
207.5527,743.0
207.6253,709.0
207.6978,776.0
207.7704,704.0
207.843,760.0
207.9155,649.0
207.9881,760.0
208.0606,680.0
208.1331,742.0
208.2057,716.0
208.2782,714.0
208.3508,738.0
208.4233,768.0
208.4958,687.0
208.5684,796.0
208.6409,683.0
208.7134,783.0
208.7859,760.0
208.8584,813.0
208.931,672.0
209.0035,717.0
209.076,733.0
209.1485,772.0
209.221,606.0
209.2935,746.0
209.366,724.0
209.4385,782.0
209.511,686.0
209.5835,791.0
209.656,715.0
209.7285,732.0
209.801,699.0
209.8735,781.0
209.9459,727.0
210.0184,759.0
210.0909,682.0
210.1634,745.0
210.2358,692.0
210.3083,743.0
210.3808,687.0
210.4532,753.0
210.5257,680.0
210.5982,770.0
210.6706,683.0
210.7431,735.0
210.8155,656.0
210.888,724.0
210.9604,679.0
211.0329,759.0
211.1053,683.0
211.1777,716.0
211.2502,690.0
211.3226,701.0
211.3951,663.0
211.4675,713.0
211.5399,664.0
211.6123,759.0
211.6847,688.0
211.7572,789.0
211.8296,680.0
211.902,790.0
211.9744,697.0
212.0468,722.0
212.1192,728.0
212.1917,754.0
212.264,705.0
212.3364,756.0
212.4088,697.0
212.4812,784.0
212.5536,703.0
212.626,780.0
212.6984,700.0
212.7708,748.0
212.8432,706.0
212.9155,757.0
212.9879,668.0
213.0603,748.0
213.1326,670.0
213.205,747.0
213.2774,702.0
213.3498,758.0
213.4221,676.0
213.4945,729.0
213.5668,647.0
213.6392,753.0
213.7115,669.0
213.7839,764.0
213.8562,648.0
213.9286,719.0
214.0009,704.0
214.0732,718.0
214.1456,712.0
214.2179,754.0
214.2903,743.0
214.3626,772.0
214.4349,693.0
214.5072,770.0
214.5796,687.0
214.6519,741.0
214.7242,716.0
214.7965,724.0
214.8688,721.0
214.9411,763.0
215.0134,684.0
215.0857,832.0
215.158,702.0
215.2303,770.0
215.3026,755.0
215.3749,772.0
215.4472,722.0
215.5195,793.0
215.5918,711.0
215.6641,793.0
215.7363,704.0
215.8086,753.0
215.8809,674.0
215.9532,795.0
216.0254,704.0
216.0977,750.0
216.17,676.0
216.2422,759.0
216.3145,705.0
216.3867,812.0
216.459,723.0
216.5313,776.0
216.6035,687.0
216.6758,758.0
216.748,682.0
216.8202,733.0
216.8925,736.0
216.9647,745.0
217.037,699.0
217.1092,829.0
217.1814,664.0
217.2536,820.0
217.3259,714.0
217.3981,781.0
217.4703,696.0
217.5425,736.0
217.6147,698.0
217.687,763.0
217.7592,736.0
217.8314,800.0
217.9035,688.0
217.9758,719.0
218.048,715.0
218.1201,754.0
218.1924,744.0
218.2645,814.0
218.3367,713.0
218.4089,777.0
218.4811,689.0
218.5533,768.0
218.6255,661.0
218.6976,778.0
218.7698,726.0
218.842,768.0
218.9142,740.0
218.9863,782.0
219.0585,723.0
219.1306,789.0
219.2028,732.0
219.2749,812.0
219.3471,731.0
219.4193,801.0
219.4914,740.0
219.5636,760.0
219.6357,748.0
219.7078,829.0
219.78,784.0
219.8521,850.0
219.9242,732.0
219.9964,782.0
220.0685,748.0
220.1406,834.0
220.2128,791.0
220.2849,804.0
220.357,749.0
220.4291,806.0
220.5012,745.0
220.5733,779.0
220.6454,748.0
220.7175,814.0
220.7896,769.0
220.8617,832.0
220.9338,737.0
221.0059,794.0
221.078,739.0
221.1501,812.0
221.2222,726.0
221.2943,846.0
221.3663,659.0
221.4384,801.0
221.5105,778.0
221.5826,789.0
221.6546,729.0
221.7267,797.0
221.7988,714.0
221.8708,827.0
221.9429,756.0
222.015,798.0
222.087,766.0
222.1591,797.0
222.2311,797.0
222.3032,840.0
222.3752,737.0
222.4473,799.0
222.5193,752.0
222.5913,756.0
222.6634,704.0
222.7354,834.0
222.8074,735.0
222.8795,814.0
222.9515,724.0
223.0235,772.0
223.0955,759.0
223.1675,801.0
223.2395,727.0
223.3116,796.0
223.3836,724.0
223.4556,797.0
223.5276,730.0
223.5996,819.0
223.6716,722.0
223.7436,814.0
223.8156,764.0
223.8876,805.0
223.9595,715.0
224.0315,789.0
224.1035,759.0
224.1755,806.0
224.2475,764.0
224.3195,853.0
224.3914,740.0
224.4634,837.0
224.5354,729.0
224.6073,804.0
224.6793,750.0
224.7512,838.0
224.8232,740.0
224.8952,840.0
224.9671,742.0
225.0391,785.0
225.111,777.0
225.1829,852.0
225.2549,768.0
225.3268,811.0
225.3988,772.0
225.4707,844.0
225.5426,746.0
225.6146,834.0
225.6865,777.0
225.7584,850.0
225.8303,758.0
225.9022,829.0
225.9742,761.0
226.0461,810.0
226.118,779.0
226.1899,879.0
226.2618,812.0
226.3337,844.0
226.4056,795.0
226.4775,881.0
226.5494,783.0
226.6213,838.0
226.6932,754.0
226.7651,833.0
226.8369,758.0
226.9088,853.0
226.9807,763.0
227.0526,859.0
227.1245,750.0
227.1963,857.0
227.2682,774.0
227.3401,867.0
227.4119,731.0
227.4838,823.0
227.5556,784.0
227.6275,855.0
227.6993,777.0
227.7712,857.0
227.8431,761.0
227.9149,788.0
227.9867,763.0
228.0586,786.0
228.1304,748.0
228.2023,850.0
228.2741,776.0
228.3459,833.0
228.4177,771.0
228.4896,848.0
228.5614,777.0
228.6332,822.0
228.705,788.0
228.7768,853.0
228.8486,798.0
228.9205,862.0
228.9923,813.0
229.0641,890.0
229.1359,816.0
229.2077,883.0
229.2794,845.0
229.3513,954.0
229.423,949.0
229.4948,1110.0
229.5666,1109.0
229.6384,1304.0
229.7102,1283.0
229.782,1118.0
229.8537,901.0
229.9255,894.0
229.9973,794.0
230.069,899.0
230.1408,711.0
230.2126,858.0
230.2843,707.0
230.3561,855.0
230.4278,751.0
230.4996,761.0
230.5713,711.0
230.6431,827.0
230.7148,749.0
230.7866,773.0
230.8583,740.0
230.93,769.0
231.0018,761.0
231.0735,808.0
231.1452,708.0
231.2169,810.0
231.2887,742.0
231.3604,860.0
231.4321,754.0
231.5038,810.0
231.5755,747.0
231.6472,853.0
231.7189,746.0
231.7906,827.0
231.8624,707.0
231.9341,827.0
232.0057,706.0
232.0774,821.0
232.1491,755.0
232.2208,815.0
232.2925,707.0
232.3642,793.0
232.4359,744.0
232.5075,827.0
232.5792,763.0
232.6509,827.0
232.7225,738.0
232.7942,820.0
232.8659,733.0
232.9375,787.0
233.0092,759.0
233.0809,823.0
233.1525,712.0
233.2242,828.0
233.2958,791.0
233.3675,827.0
233.4391,761.0
233.5107,806.0
233.5824,706.0
233.654,813.0
233.7256,763.0
233.7973,810.0
233.8689,745.0
233.9405,781.0
234.0121,784.0
234.0838,787.0
234.1554,745.0
234.227,860.0
234.2986,734.0
234.3702,816.0
234.4418,741.0
234.5134,802.0
234.585,732.0
234.6566,785.0
234.7282,716.0
234.7998,768.0
234.8714,723.0
234.943,824.0
235.0146,718.0
235.0862,802.0
235.1577,726.0
235.2293,779.0
235.3009,702.0
235.3725,815.0
235.444,743.0
235.5156,789.0
235.5872,701.0
235.6587,797.0
235.7303,763.0
235.8018,835.0
235.8734,746.0
235.9449,810.0
236.0165,770.0
236.088,823.0
236.1596,771.0
236.2311,807.0
236.3026,761.0
236.3742,811.0
236.4457,741.0
236.5172,835.0
236.5887,749.0
236.6603,818.0
236.7318,741.0
236.8033,862.0
236.8748,743.0
236.9464,826.0
237.0179,739.0
237.0894,836.0
237.1609,789.0
237.2324,801.0
237.3039,765.0
237.3754,845.0
237.4469,764.0
237.5184,882.0
237.5898,758.0
237.6613,850.0
237.7328,826.0
237.8043,838.0
237.8758,749.0
237.9472,839.0
238.0187,729.0
238.0902,857.0
238.1617,773.0
238.2331,848.0
238.3046,793.0
238.376,836.0
238.4475,802.0
238.519,844.0
238.5904,822.0
238.6618,848.0
238.7333,780.0
238.8047,849.0
238.8762,750.0
238.9476,831.0
239.0191,758.0
239.0905,844.0
239.1619,764.0
239.2334,833.0
239.3048,743.0
239.3762,835.0
239.4476,808.0
239.519,874.0
239.5904,816.0
239.6619,871.0
239.7333,809.0
239.8047,874.0
239.8761,783.0
239.9475,878.0
240.0189,757.0
240.0903,894.0
240.1617,765.0
240.233,837.0
240.3044,743.0
240.3758,892.0
240.4472,765.0
240.5186,820.0
240.59,744.0
240.6613,873.0
240.7327,804.0
240.8041,872.0
240.8754,772.0
240.9468,836.0
241.0181,762.0
241.0895,834.0
241.1609,776.0
241.2322,832.0
241.3036,752.0
241.3749,849.0
241.4462,787.0
241.5176,832.0
241.5889,808.0
241.6602,886.0
241.7316,780.0
241.8029,879.0
241.8743,766.0
241.9456,834.0
242.0169,767.0
242.0882,856.0
242.1595,787.0
242.2309,847.0
242.3022,771.0
242.3735,827.0
242.4448,770.0
242.5161,851.0
242.5874,825.0
242.6587,805.0
242.73,775.0
242.8013,845.0
242.8726,813.0
242.9438,834.0
243.0151,772.0
243.0864,875.0
243.1577,738.0
243.229,866.0
243.3002,787.0
243.3715,836.0
243.4428,763.0
243.5141,821.0
243.5853,815.0
243.6566,849.0
243.7278,754.0
243.7991,835.0
243.8703,792.0
243.9416,835.0
244.0128,774.0
244.0841,843.0
244.1553,761.0
244.2266,844.0
244.2978,779.0
244.369,855.0
244.4402,783.0
244.5115,830.0
244.5827,774.0
244.6539,821.0
244.7251,807.0
244.7964,797.0
244.8676,783.0
244.9388,917.0
245.01,782.0
245.0812,861.0
245.1524,776.0
245.2236,841.0
245.2948,808.0
245.366,835.0
245.4372,786.0
245.5084,834.0
245.5796,742.0
245.6507,812.0
245.7219,793.0
245.7931,869.0
245.8643,743.0
245.9355,821.0
246.0066,756.0
246.0778,794.0
246.149,734.0
246.2201,825.0
246.2913,754.0
246.3624,820.0
246.4336,733.0
246.5047,825.0
246.5759,748.0
246.647,801.0
246.7182,722.0
246.7893,844.0
246.8605,758.0
246.9316,864.0
247.0027,728.0
247.0739,805.0
247.145,734.0
247.2161,829.0
247.2872,780.0
247.3584,856.0
247.4295,800.0
247.5006,859.0
247.5717,802.0
247.6428,966.0
247.7139,932.0
247.785,1050.0
247.8561,1139.0
247.9272,1361.0
247.9983,1119.0
248.0694,1108.0
248.1405,903.0
248.2116,955.0
248.2827,848.0
248.3537,895.0
248.4248,784.0
248.4959,845.0
248.5669,735.0
248.638,880.0
248.7091,745.0
248.7802,850.0
248.8512,766.0
248.9223,845.0
248.9933,806.0
249.0644,776.0
249.1354,765.0
249.2065,837.0
249.2775,776.0
249.3486,827.0
249.4196,722.0
249.4906,822.0
249.5617,770.0
249.6327,848.0
249.7037,717.0
249.7747,815.0
249.8458,767.0
249.9168,847.0
249.9878,772.0
250.0588,866.0
250.1298,799.0
250.2009,811.0
250.2719,763.0
250.3429,858.0
250.4138,765.0
250.4849,803.0
250.5558,763.0
250.6268,869.0
250.6978,783.0
250.7688,876.0
250.8398,815.0
250.9108,1005.0
250.9818,896.0
251.0527,957.0
251.1237,902.0
251.1947,1009.0
251.2657,940.0
251.3366,958.0
251.4076,808.0
251.4785,905.0
251.5495,756.0
251.6205,870.0
251.6914,799.0
251.7623,856.0
251.8333,786.0
251.9042,846.0
251.9752,741.0
252.0461,859.0
252.1171,754.0
252.188,811.0
252.2589,755.0
252.3298,848.0
252.4008,781.0
252.4717,837.0
252.5426,719.0
252.6135,825.0
252.6844,768.0
252.7553,802.0
252.8262,770.0
252.8971,839.0
252.9681,730.0
253.039,830.0
253.1098,761.0
253.1808,821.0
253.2516,749.0
253.3225,803.0
253.3934,759.0
253.4643,782.0
253.5352,746.0
253.606,846.0
253.6769,807.0
253.7478,845.0
253.8187,819.0
253.8895,817.0
253.9604,725.0
254.0312,785.0
254.1021,708.0
254.173,803.0
254.2438,718.0
254.3147,822.0
254.3855,736.0
254.4563,808.0
254.5272,767.0
254.598,843.0
254.6689,769.0
254.7397,800.0
254.8105,748.0
254.8813,821.0
254.9522,741.0
255.023,844.0
255.0938,694.0
255.1646,814.0
255.2354,746.0
255.3062,860.0
255.3771,682.0
255.4479,845.0
255.5187,739.0
255.5894,813.0
255.6603,754.0
255.731,849.0
255.8018,732.0
255.8726,869.0
255.9434,740.0
256.0142,813.0
256.085,746.0
256.1558,872.0
256.2265,790.0
256.2973,828.0
256.3681,736.0
256.4388,855.0
256.5096,738.0
256.5804,839.0
256.6511,724.0
256.7219,860.0
256.7926,773.0
256.8634,841.0
256.9341,755.0
257.0049,868.0
257.0756,752.0
257.1463,832.0
257.2171,768.0
257.2878,857.0
257.3585,754.0
257.4292,832.0
257.5,746.0
257.5707,834.0
257.6414,716.0
257.7122,787.0
257.7828,748.0
257.8535,805.0
257.9243,775.0
257.995,862.0
258.0657,769.0
258.1364,832.0
258.2071,752.0
258.2777,785.0
258.3484,749.0
258.4191,802.0
258.4898,744.0
258.5605,842.0
258.6312,758.0
258.7018,808.0
258.7725,763.0
258.8432,802.0
258.9139,697.0
258.9845,807.0
259.0552,728.0
259.1259,807.0
259.1965,735.0
259.2672,782.0
259.3378,781.0
259.4085,778.0
259.4791,687.0
259.5497,805.0
259.6204,695.0
259.691,824.0
259.7617,729.0
259.8323,827.0
259.9029,698.0
259.9735,813.0
260.0442,722.0
260.1147,760.0
260.1854,731.0
260.256,803.0
260.3267,722.0
260.3972,843.0
260.4678,766.0
260.5384,795.0
260.6091,717.0
260.6796,833.0
260.7502,707.0
260.8208,833.0
260.8914,685.0
260.962,834.0
261.0326,718.0
261.1032,791.0
261.1737,758.0
261.2444,828.0
261.3149,779.0
261.3854,799.0
261.456,717.0
261.5266,867.0
261.5971,754.0
261.6677,853.0
261.7383,765.0
261.8088,838.0
261.8794,773.0
261.9499,839.0
262.0205,754.0
262.091,838.0
262.1615,745.0
262.2321,876.0
262.3026,795.0
262.3731,859.0
262.4437,731.0
262.5142,874.0
262.5847,760.0
262.6552,853.0
262.7257,755.0
262.7962,853.0
262.8668,731.0
262.9373,806.0
263.0078,758.0
263.0783,835.0
263.1488,766.0
263.2193,795.0
263.2898,757.0
263.3603,871.0
263.4307,751.0
263.5012,849.0
263.5717,787.0
263.6422,808.0
263.7127,785.0
263.7831,837.0
263.8536,762.0
263.9241,809.0
263.9945,780.0
264.065,886.0
264.1354,756.0
264.2059,821.0
264.2764,766.0
264.3468,850.0
264.4173,749.0
264.4877,842.0
264.5581,740.0
264.6286,851.0
264.699,763.0
264.7694,818.0
264.8399,793.0
264.9103,802.0
264.9807,735.0
265.0511,835.0
265.1216,735.0
265.192,836.0
265.2625,727.0
265.3328,813.0
265.4032,769.0
265.4736,771.0
265.5441,782.0
265.6144,783.0
265.6848,746.0
265.7552,746.0
265.8256,747.0
265.896,801.0
265.9664,711.0
266.0368,875.0
266.1071,765.0
266.1775,805.0
266.2479,738.0
266.3183,765.0
266.3886,737.0
266.459,790.0
266.5294,722.0
266.5998,825.0
266.6701,730.0
266.7404,820.0
266.8108,771.0
266.8812,801.0
266.9515,718.0
267.0219,811.0
267.0922,732.0
267.1625,801.0
267.2328,754.0
267.3032,867.0
267.3735,731.0
267.4438,772.0
267.5142,742.0
267.5845,843.0
267.6548,787.0
267.7251,797.0
267.7954,674.0
267.8657,755.0
267.936,743.0
268.0063,823.0
268.0766,748.0
268.1469,791.0
268.2172,739.0
268.2875,789.0
268.3578,741.0
268.4281,796.0
268.4984,709.0
268.5686,783.0
268.6389,722.0
268.7092,788.0
268.7794,718.0
268.8498,800.0
268.92,725.0
268.9902,789.0
269.0605,722.0
269.1308,783.0
269.201,752.0
269.2713,784.0
269.3415,718.0
269.4118,771.0
269.482,709.0
269.5523,798.0
269.6225,744.0
269.6927,803.0
269.7629,751.0
269.8332,830.0
269.9034,737.0
269.9736,844.0
270.0439,731.0
270.114,793.0
270.1843,693.0
270.2545,790.0
270.3247,742.0
270.3949,785.0
270.4651,750.0
270.5353,792.0
270.6055,701.0
270.6757,793.0
270.7459,730.0
270.8161,793.0
270.8863,766.0
270.9564,828.0
271.0266,774.0
271.0968,839.0
271.167,704.0
271.2371,865.0
271.3073,746.0
271.3775,861.0
271.4476,685.0
271.5178,832.0
271.588,766.0
271.6581,819.0
271.7282,738.0
271.7984,802.0
271.8685,712.0
271.9387,831.0
272.0088,771.0
272.0789,821.0
272.1491,779.0
272.2192,860.0
272.2893,805.0
272.3595,827.0
272.4296,748.0
272.4997,829.0
272.5698,720.0
272.64,862.0
272.7101,747.0
272.7802,848.0
272.8503,782.0
272.9204,830.0
272.9904,779.0
273.0605,877.0
273.1306,796.0
273.2007,845.0
273.2708,729.0
273.3409,811.0
273.411,756.0
273.481,838.0
273.5511,770.0
273.6212,870.0
273.6913,799.0
273.7614,848.0
273.8314,775.0
273.9015,879.0
273.9715,783.0
274.0416,871.0
274.1116,776.0
274.1817,849.0
274.2517,785.0
274.3217,867.0
274.3918,811.0
274.4619,870.0
274.5319,788.0
274.602,860.0
274.6719,769.0
274.742,837.0
274.812,795.0
274.882,856.0
274.952,758.0
275.0221,896.0
275.0921,734.0
275.1621,849.0
275.2321,806.0
275.3021,845.0
275.3721,770.0
275.4421,863.0
275.5121,772.0
275.5821,859.0
275.6521,792.0
275.722,845.0
275.792,821.0
275.862,804.0
275.932,749.0
276.002,884.0
276.0719,772.0
276.1418,844.0
276.2119,824.0
276.2818,842.0
276.3517,824.0
276.4218,878.0
276.4917,804.0
276.5616,800.0
276.6316,773.0
276.7015,888.0
276.7715,753.0
276.8414,828.0
276.9113,716.0
276.9813,830.0
277.0512,762.0
277.1211,854.0
277.191,784.0
277.261,878.0
277.3309,785.0
277.4008,843.0
277.4707,767.0
277.5406,854.0
277.6105,783.0
277.6804,818.0
277.7503,767.0
277.8202,849.0
277.8901,731.0
277.96,869.0
278.0299,793.0
278.0998,843.0
278.1697,716.0
278.2396,811.0
278.3094,742.0
278.3793,874.0
278.4492,751.0
278.519,832.0
278.5889,753.0
278.6588,865.0
278.7286,781.0
278.7985,831.0
278.8683,796.0
278.9382,828.0
279.0081,806.0
279.0779,828.0
279.1477,743.0
279.2176,818.0
279.2874,782.0
279.3572,873.0
279.4271,750.0
279.4969,889.0
279.5667,787.0
279.6365,859.0
279.7063,786.0
279.7762,865.0
279.846,802.0
279.9158,873.0
279.9856,783.0
280.0554,829.0
280.1252,800.0
280.195,845.0
280.2648,774.0
280.3346,865.0
280.4044,798.0
280.4742,910.0
280.544,818.0
280.6137,903.0
280.6835,804.0
280.7533,859.0
280.8231,805.0
280.8928,905.0
280.9626,811.0
281.0323,864.0
281.1021,801.0
281.1719,926.0
281.2416,776.0
281.3114,869.0
281.3811,794.0
281.4509,868.0
281.5206,797.0
281.5904,868.0
281.6601,742.0
281.7299,897.0
281.7996,804.0
281.8693,866.0
281.939,808.0
282.0088,867.0
282.0784,776.0
282.1482,882.0
282.2179,805.0
282.2876,814.0
282.3573,809.0
282.427,874.0
282.4967,807.0
282.5664,842.0
282.6361,807.0
282.7058,886.0
282.7755,811.0
282.8452,855.0
282.9149,795.0
282.9845,911.0
283.0542,819.0
283.1239,901.0
283.1936,805.0
283.2632,911.0
283.3329,795.0
283.4026,903.0
283.4722,842.0
283.5419,916.0
283.6115,829.0
283.6812,877.0
283.7508,881.0
283.8205,905.0
283.8901,848.0
283.9597,872.0
284.0294,814.0
284.099,916.0
284.1686,850.0
284.2383,938.0
284.3079,790.0
284.3775,847.0
284.4471,858.0
284.5168,899.0
284.5864,779.0
284.656,917.0
284.7256,781.0
284.7952,875.0
284.8648,817.0
284.9344,901.0
285.004,782.0
285.0736,884.0
285.1432,789.0
285.2128,860.0
285.2823,758.0
285.3519,895.0
285.4215,802.0
285.4911,850.0
285.5606,792.0
285.6302,879.0
285.6998,809.0
285.7693,863.0
285.8389,809.0
285.9084,854.0
285.978,735.0
286.0475,834.0
286.1171,779.0
286.1866,872.0
286.2562,761.0
286.3257,855.0
286.3952,787.0
286.4648,851.0
286.5343,814.0
286.6039,826.0
286.6733,739.0
286.7429,857.0
286.8124,737.0
286.8819,817.0
286.9514,773.0
287.0209,871.0
287.0904,720.0
287.1599,866.0
287.2294,804.0
287.299,856.0
287.3684,749.0
287.4379,832.0
287.5074,735.0
287.5769,824.0
287.6464,758.0
287.7159,876.0
287.7853,776.0
287.8548,835.0
287.9243,792.0
287.9937,841.0
288.0632,798.0
288.1327,878.0
288.2021,759.0
288.2716,840.0
288.341,780.0
288.4105,893.0
288.4799,767.0
288.5493,857.0
288.6188,750.0
288.6882,844.0
288.7577,784.0
288.8271,863.0
288.8965,756.0
288.9659,871.0
289.0354,796.0
289.1048,878.0
289.1742,781.0
289.2436,872.0
289.313,763.0
289.3824,846.0
289.4518,787.0
289.5212,898.0
289.5906,734.0
289.66,825.0
289.7294,777.0
289.7988,853.0
289.8682,765.0
289.9376,825.0
290.007,792.0
290.0764,858.0
290.1457,812.0
290.2151,864.0
290.2844,774.0
290.3538,882.0
290.4232,795.0
290.4925,816.0
290.5619,796.0
290.6312,857.0
290.7006,789.0
290.7699,843.0
290.8393,782.0
290.9086,920.0
290.978,832.0
291.0473,882.0
291.1166,811.0
291.1859,869.0
291.2553,756.0
291.3246,860.0
291.3939,795.0
291.4632,863.0
291.5325,790.0
291.6018,864.0
291.6712,822.0
291.7405,895.0
291.8098,827.0
291.8791,885.0
291.9484,824.0
292.0176,881.0
292.0869,833.0
292.1562,861.0
292.2255,778.0
292.2948,884.0
292.3641,804.0
292.4334,902.0
292.5026,848.0
292.5719,915.0
292.6412,784.0
292.7104,894.0
292.7797,849.0
292.8489,896.0
292.9182,793.0
292.9875,896.0
293.0567,749.0
293.1259,896.0
293.1952,798.0
293.2644,898.0
293.3336,812.0
293.4029,888.0
293.4721,756.0
293.5413,897.0
293.6106,811.0
293.6798,866.0
293.749,820.0
293.8182,890.0
293.8875,822.0
293.9566,907.0
294.0259,803.0
294.0951,872.0
294.1642,773.0
294.2334,877.0
294.3026,789.0
294.3718,907.0
294.441,820.0
294.5102,894.0
294.5794,794.0
294.6485,886.0
294.7177,781.0
294.7869,880.0
294.8561,823.0
294.9253,893.0
294.9944,741.0
295.0636,886.0
295.1327,820.0
295.2019,869.0
295.271,782.0
295.3402,870.0
295.4093,839.0
295.4785,876.0
295.5476,850.0
295.6168,881.0
295.6859,789.0
295.755,873.0
295.8241,798.0
295.8932,885.0
295.9623,806.0
296.0315,892.0
296.1006,810.0
296.1697,861.0
296.2388,836.0
296.3079,873.0
296.377,838.0
296.4461,875.0
296.5152,806.0
296.5843,874.0
296.6534,794.0
296.7225,915.0
296.7916,799.0
296.8606,949.0
296.9297,805.0
296.9988,881.0
297.0679,811.0
297.137,877.0
297.206,774.0
297.2751,904.0
297.3441,824.0
297.4132,875.0
297.4823,828.0
297.5513,873.0
297.6204,812.0
297.6894,844.0
297.7584,799.0
297.8275,900.0
297.8965,828.0
297.9655,900.0
298.0346,780.0
298.1036,871.0
298.1726,818.0
298.2417,878.0
298.3106,842.0
298.3797,880.0
298.4487,829.0
298.5177,881.0
298.5867,809.0
298.6557,931.0
298.7247,820.0
298.7937,908.0
298.8627,830.0
298.9317,906.0
299.0007,807.0
299.0696,878.0
299.1386,780.0
299.2076,867.0
299.2766,825.0
299.3456,887.0
299.4145,823.0
299.4835,908.0
299.5524,811.0
299.6214,908.0
299.6903,765.0
299.7593,913.0
299.8282,826.0
299.8972,881.0
299.9661,876.0
300.0351,884.0
300.104,818.0
300.173,897.0
300.2419,798.0
300.3108,910.0
300.3797,766.0
300.4487,941.0
300.5176,816.0
300.5865,895.0
300.6554,841.0
300.7243,839.0
300.7932,780.0
300.8621,888.0
300.931,863.0
300.9999,898.0
301.0688,819.0
301.1377,912.0
301.2066,862.0
301.2755,905.0
301.3444,777.0
301.4132,879.0
301.4821,786.0
301.551,929.0
301.6199,876.0
301.6887,958.0
301.7576,817.0
301.8265,927.0
301.8953,820.0
301.9642,872.0
302.033,841.0
302.1019,910.0
302.1707,823.0
302.2396,924.0
302.3084,824.0
302.3772,854.0
302.4461,831.0
302.5149,917.0
302.5837,824.0
302.6526,888.0
302.7214,827.0
302.7902,913.0
302.859,846.0
302.9278,898.0
302.9966,852.0
303.0654,955.0
303.1342,816.0
303.203,899.0
303.2718,851.0
303.3406,952.0
303.4094,829.0
303.4781,886.0
303.547,853.0
303.6158,921.0
303.6845,848.0
303.7533,918.0
303.8221,837.0
303.8908,934.0
303.9596,788.0
304.0284,906.0
304.0971,845.0
304.1659,888.0
304.2346,853.0
304.3034,870.0
304.3721,821.0
304.4409,902.0
304.5096,838.0
304.5784,926.0
304.6471,789.0
304.7158,944.0
304.7845,831.0
304.8533,899.0
304.922,829.0
304.9907,890.0
305.0594,830.0
305.1281,923.0
305.1969,829.0
305.2656,916.0
305.3343,851.0
305.403,913.0
305.4717,825.0
305.5403,916.0
305.609,808.0
305.6778,903.0
305.7464,828.0
305.8151,880.0
305.8838,838.0
305.9525,924.0
306.0211,831.0
306.0898,884.0
306.1585,840.0
306.2271,885.0
306.2958,818.0
306.3645,917.0
306.4331,810.0
306.5017,866.0
306.5704,854.0
306.6391,921.0
306.7077,780.0
306.7763,901.0
306.845,791.0
306.9136,887.0
306.9822,814.0
307.0508,972.0
307.1195,874.0
307.1881,897.0
307.2567,827.0
307.3253,983.0
307.3939,822.0
307.4625,923.0
307.5312,768.0
307.5998,925.0
307.6684,827.0
307.7369,841.0
307.8055,801.0
307.8741,898.0
307.9427,808.0
308.0113,883.0
308.0799,780.0
308.1484,856.0
308.217,817.0
308.2856,844.0
308.3542,769.0
308.4227,884.0
308.4913,784.0
308.5598,948.0
308.6284,806.0
308.6969,892.0
308.7655,820.0
308.834,926.0
308.9026,832.0
308.9711,887.0
309.0396,752.0
309.1082,920.0
309.1767,787.0
309.2452,926.0
309.3138,807.0
309.3823,894.0
309.4508,798.0
309.5193,865.0
309.5878,821.0
309.6563,887.0
309.7249,813.0
309.7933,899.0
309.8618,834.0
309.9303,882.0
309.9988,815.0
310.0673,906.0
310.1358,793.0
310.2043,875.0
310.2728,783.0
310.3412,891.0
310.4097,727.0
310.4781,884.0
310.5466,825.0
310.6151,879.0
310.6836,859.0
310.752,849.0
310.8205,824.0
310.8889,890.0
310.9574,807.0
311.0258,917.0
311.0943,800.0
311.1627,910.0
311.2311,767.0
311.2996,905.0
311.368,810.0
311.4364,864.0
311.5049,779.0
311.5733,875.0
311.6417,776.0
311.7101,883.0
311.7785,794.0
311.8469,829.0
311.9153,899.0
311.9837,888.0
312.0521,825.0
312.1205,863.0
312.1889,788.0
312.2573,855.0
312.3257,768.0
312.3941,866.0
312.4624,769.0
312.5308,842.0
312.5992,785.0
312.6675,854.0
312.7359,777.0
312.8043,834.0
312.8727,783.0
312.941,876.0
313.0093,781.0
313.0777,854.0
313.1461,807.0
313.2144,863.0
313.2827,762.0
313.3511,870.0
313.4194,771.0
313.4877,825.0
313.5561,739.0
313.6244,871.0
313.6927,763.0
313.761,809.0
313.8294,724.0
313.8977,837.0
313.966,741.0
314.0343,825.0
314.1026,772.0
314.1709,880.0
314.2392,792.0
314.3075,840.0
314.3758,742.0
314.4441,858.0
314.5124,752.0
314.5806,850.0
314.6489,772.0
314.7172,845.0
314.7855,767.0
314.8537,842.0
314.922,795.0
314.9903,896.0
315.0585,782.0
315.1268,887.0
315.195,769.0
315.2633,869.0
315.3315,852.0
315.3998,849.0
315.468,787.0
315.5362,886.0
315.6045,798.0
315.6727,830.0
315.7409,758.0
315.8092,879.0
315.8774,813.0
315.9456,909.0
316.0138,851.0
316.082,887.0
316.1502,773.0
316.2184,890.0
316.2867,822.0
316.3549,881.0
316.423,797.0
316.4912,916.0
316.5594,843.0
316.6276,919.0
316.6958,806.0
316.764,876.0
316.8322,800.0
316.9003,875.0
316.9685,817.0
317.0367,901.0
317.1049,804.0
317.173,882.0
317.2411,855.0
317.3093,898.0
317.3774,828.0
317.4456,884.0
317.5137,791.0
317.5819,933.0
317.65,827.0
317.7182,882.0
317.7863,826.0
317.8545,927.0
317.9225,848.0
317.9907,905.0
318.0588,829.0
318.1269,925.0
318.195,861.0
318.2631,916.0
318.3312,828.0
318.3994,902.0
318.4675,822.0
318.5355,906.0
318.6036,820.0
318.6717,908.0
318.7398,845.0
318.8079,949.0
318.876,857.0
318.9441,896.0
319.0121,818.0
319.0802,970.0
319.1483,828.0
319.2164,942.0
319.2844,852.0
319.3525,919.0
319.4205,793.0
319.4886,968.0
319.5566,869.0
319.6247,922.0
319.6927,835.0
319.7608,966.0
319.8288,858.0
319.8968,904.0
319.9648,853.0
320.0329,933.0
320.1009,809.0
320.1689,909.0
320.237,856.0
320.305,938.0
320.373,822.0
320.441,910.0
320.509,800.0
320.577,928.0
320.645,831.0
320.713,915.0
320.781,837.0
320.849,896.0
320.917,792.0
320.985,871.0
321.0529,845.0
321.1209,952.0
321.1889,848.0
321.2568,920.0
321.3248,859.0
321.3928,904.0
321.4608,848.0
321.5287,884.0
321.5966,774.0
321.6646,879.0
321.7325,830.0
321.8005,880.0
321.8684,804.0
321.9364,901.0
322.0043,821.0
322.0722,909.0
322.1401,802.0
322.2081,900.0
322.276,834.0
322.344,912.0
322.4119,876.0
322.4797,897.0
322.5477,862.0
322.6156,863.0
322.6835,832.0
322.7514,918.0
322.8193,828.0
322.8871,939.0
322.955,843.0
323.0229,952.0
323.0908,853.0
323.1588,924.0
323.2266,829.0
323.2945,921.0
323.3623,824.0
323.4302,964.0
323.4981,794.0
323.5659,926.0
323.6338,884.0
323.7016,870.0
323.7695,840.0
323.8373,901.0
323.9052,871.0
323.973,944.0
324.0409,849.0
324.1087,976.0
324.1765,846.0
324.2444,943.0
324.3122,828.0
324.38,928.0
324.4479,858.0
324.5157,975.0
324.5834,817.0
324.6512,936.0
324.7191,858.0
324.7869,903.0
324.8547,895.0
324.9225,922.0
324.9903,872.0
325.058,957.0
325.1259,835.0
325.1936,943.0
325.2614,757.0
325.3292,970.0
325.397,858.0
325.4647,927.0
325.5325,891.0
325.6002,892.0
325.668,841.0
325.7358,941.0
325.8036,823.0
325.8713,937.0
325.939,846.0
326.0068,908.0
326.0745,822.0
326.1422,865.0
326.21,850.0
326.2777,925.0
326.3455,820.0
326.4132,947.0
326.4809,904.0
326.5486,921.0
326.6164,878.0
326.6841,920.0
326.7518,843.0
326.8195,950.0
326.8872,810.0
326.9549,961.0
327.0226,798.0
327.0903,949.0
327.158,853.0
327.2256,929.0
327.2933,896.0
327.361,927.0
327.4287,840.0
327.4964,960.0
327.5641,840.0
327.6317,940.0
327.6994,817.0
327.767,952.0
327.8347,830.0
327.9023,930.0
327.97,838.0
328.0376,910.0
328.1053,806.0
328.1729,923.0
328.2406,857.0
328.3082,919.0
328.3759,845.0
328.4435,865.0
328.5111,823.0
328.5787,900.0
328.6463,819.0
328.7139,912.0
328.7816,838.0
328.8492,945.0
328.9168,802.0
328.9843,895.0
329.052,844.0
329.1196,875.0
329.1872,786.0
329.2548,903.0
329.3224,829.0
329.3899,884.0
329.4575,821.0
329.5251,911.0
329.5927,843.0
329.6602,898.0
329.7278,820.0
329.7953,882.0
329.8629,825.0
329.9305,951.0
329.998,783.0
330.0656,898.0
330.1331,765.0
330.2007,864.0
330.2682,813.0
330.3358,857.0
330.4033,821.0
330.4708,922.0
330.5383,830.0
330.6059,914.0
330.6734,842.0
330.7409,888.0
330.8084,781.0
330.876,913.0
330.9435,825.0
331.011,877.0
331.0784,768.0
331.1459,876.0
331.2134,776.0
331.2809,838.0
331.3484,812.0
331.4159,840.0
331.4834,746.0
331.5508,892.0
331.6183,781.0
331.6858,872.0
331.7533,780.0
331.8207,919.0
331.8882,818.0
331.9557,892.0
332.0231,828.0
332.0906,904.0
332.1581,787.0
332.2255,869.0
332.2929,784.0
332.3604,916.0
332.4278,850.0
332.4952,875.0
332.5627,750.0
332.6301,898.0
332.6975,782.0
332.7649,877.0
332.8323,803.0
332.8997,879.0
332.9672,815.0
333.0346,899.0
333.102,838.0
333.1694,873.0
333.2368,839.0
333.3042,905.0
333.3716,781.0
333.439,923.0
333.5063,784.0
333.5737,917.0
333.6411,808.0
333.7085,902.0
333.7758,823.0
333.8432,888.0
333.9106,808.0
333.9779,868.0
334.0453,745.0
334.1126,947.0
334.18,834.0
334.2473,888.0
334.3147,806.0
334.382,858.0
334.4494,833.0
334.5167,907.0
334.584,822.0
334.6514,917.0
334.7187,811.0
334.786,888.0
334.8533,823.0
334.9206,879.0
334.9879,834.0
335.0553,875.0
335.1226,800.0
335.1899,893.0
335.2572,829.0
335.3245,887.0
335.3918,853.0
335.459,904.0
335.5263,834.0
335.5936,888.0
335.6609,813.0
335.7282,930.0
335.7954,830.0
335.8627,911.0
335.93,870.0
335.9973,910.0
336.0645,803.0
336.1318,883.0
336.199,831.0
336.2662,897.0
336.3335,849.0
336.4008,911.0
336.468,777.0
336.5352,927.0
336.6024,824.0
336.6697,904.0
336.7369,837.0
336.8041,880.0
336.8714,759.0
336.9386,878.0
337.0058,762.0
337.073,886.0
337.1402,814.0
337.2074,883.0
337.2746,833.0
337.3418,865.0
337.409,827.0
337.4762,839.0
337.5434,819.0
337.6106,858.0
337.6777,802.0
337.7449,901.0
337.8121,817.0
337.8792,851.0
337.9464,791.0
338.0135,889.0
338.0807,764.0
338.1479,878.0
338.2151,821.0
338.2822,887.0
338.3493,800.0
338.4165,884.0
338.4836,733.0
338.5508,918.0
338.6179,783.0
338.6851,810.0
338.7521,824.0
338.8193,916.0
338.8864,827.0
338.9535,885.0
339.0206,853.0
339.0878,870.0
339.1548,782.0
339.222,885.0
339.289,788.0
339.3561,906.0
339.4233,785.0
339.4904,927.0
339.5574,804.0
339.6245,882.0
339.6916,831.0
339.7587,852.0
339.8257,817.0
339.8929,902.0
339.9599,805.0
340.0269,849.0
340.094,780.0
340.1611,880.0
340.2281,769.0
340.2952,840.0
340.3622,810.0
340.4293,886.0
340.4963,802.0
340.5633,886.0
340.6304,804.0
340.6974,883.0
340.7645,773.0
340.8315,867.0
340.8985,779.0
340.9655,864.0
341.0325,753.0
341.0995,888.0
341.1665,783.0
341.2335,867.0
341.3005,808.0
341.3675,886.0
341.4345,754.0
341.5015,899.0
341.5685,789.0
341.6355,898.0
341.7025,763.0
341.7694,855.0
341.8364,797.0
341.9034,892.0
341.9704,821.0
342.0373,891.0
342.1043,769.0
342.1712,890.0
342.2382,788.0
342.3051,868.0
342.3721,779.0
342.4391,850.0
342.506,829.0
342.5729,856.0
342.6398,800.0
342.7068,865.0
342.7737,787.0
342.8406,874.0
342.9076,814.0
342.9745,844.0
343.0414,800.0
343.1083,851.0
343.1752,791.0
343.2421,869.0
343.309,780.0
343.3759,884.0
343.4428,809.0
343.5097,909.0
343.5766,822.0
343.6434,864.0
343.7104,812.0
343.7772,838.0
343.8441,774.0
343.9109,861.0
343.9778,790.0
344.0447,872.0
344.1116,825.0
344.1784,875.0
344.2453,840.0
344.3121,881.0
344.3789,752.0
344.4458,900.0
344.5127,801.0
344.5795,894.0
344.6463,812.0
344.7131,878.0
344.78,820.0
344.8468,896.0
344.9136,775.0
344.9805,878.0
345.0473,789.0
345.1141,862.0
345.1809,802.0
345.2477,879.0
345.3145,845.0
345.3813,902.0
345.4481,819.0
345.5149,909.0
345.5816,779.0
345.6484,894.0
345.7152,819.0
345.782,907.0
345.8488,784.0
345.9155,907.0
345.9823,795.0
346.049,901.0
346.1158,803.0
346.1826,896.0
346.2493,849.0
346.3161,923.0
346.3828,830.0
346.4496,885.0
346.5163,846.0
346.5831,846.0
346.6498,803.0
346.7165,921.0
346.7832,808.0
346.85,899.0
346.9167,807.0
346.9834,875.0
347.0501,782.0
347.1168,858.0
347.1835,829.0
347.2502,899.0
347.3169,833.0
347.3836,859.0
347.4503,815.0
347.517,898.0
347.5837,819.0
347.6504,912.0
347.717,779.0
347.7837,923.0
347.8504,825.0
347.9171,863.0
347.9837,794.0
348.0504,899.0
348.1171,781.0
348.1837,868.0
348.2504,861.0
348.317,867.0
348.3837,797.0
348.4503,880.0
348.5169,782.0
348.5836,894.0
348.6502,825.0
348.7169,866.0
348.7835,844.0
348.8501,921.0
348.9167,839.0
348.9833,944.0
349.0499,851.0
349.1165,884.0
349.1832,778.0
349.2498,931.0
349.3163,810.0
349.3829,899.0
349.4495,790.0
349.5161,877.0
349.5827,817.0
349.6493,937.0
349.7159,777.0
349.7824,937.0
349.849,822.0
349.9156,898.0
349.9821,806.0
350.0487,900.0
350.1153,890.0
350.1818,915.0
350.2484,821.0
350.3149,939.0
350.3814,802.0
350.448,927.0
350.5146,809.0
350.5811,888.0
350.6476,841.0
350.7141,915.0
350.7807,813.0
350.8472,918.0
350.9137,790.0
350.9802,896.0
351.0467,857.0
351.1132,904.0
351.1797,847.0
351.2462,915.0
351.3127,840.0
351.3792,944.0
351.4457,816.0
351.5122,865.0
351.5787,871.0
351.6451,962.0
351.7116,846.0
351.7781,962.0
351.8446,870.0
351.911,941.0
351.9775,877.0
352.044,917.0
352.1104,865.0
352.1769,953.0
352.2433,850.0
352.3098,936.0
352.3762,914.0
352.4427,926.0
352.5091,816.0
352.5755,941.0
352.642,856.0
352.7084,913.0
352.7748,875.0
352.8412,948.0
352.9077,860.0
352.9741,922.0
353.0405,848.0
353.1068,953.0
353.1732,836.0
353.2396,974.0
353.306,871.0
353.3724,920.0
353.4388,868.0
353.5052,944.0
353.5716,871.0
353.638,983.0
353.7043,916.0
353.7707,990.0
353.8371,856.0
353.9034,983.0
353.9698,887.0
354.0362,972.0
354.1025,921.0
354.1689,970.0
354.2352,933.0
354.3016,967.0
354.3679,894.0
354.4342,994.0
354.5005,903.0
354.5669,974.0
354.6332,905.0
354.6996,1037.0
354.7659,901.0
354.8322,963.0
354.8985,905.0
354.9648,988.0
355.0311,880.0
355.0974,988.0
355.1637,899.0
355.23,1010.0
355.2963,872.0
355.3625,972.0
355.4289,846.0
355.4952,987.0
355.5614,881.0
355.6277,1010.0
355.694,934.0
355.7603,953.0
355.8265,859.0
355.8928,996.0
355.959,883.0
356.0253,955.0
356.0916,884.0
356.1578,965.0
356.224,832.0
356.2903,957.0
356.3565,875.0
356.4228,966.0
356.489,840.0
356.5552,954.0
356.6214,844.0
356.6876,941.0
356.7539,867.0
356.8201,988.0
356.8863,859.0
356.9525,960.0
357.0187,834.0
357.0849,911.0
357.1511,814.0
357.2173,875.0
357.2835,850.0
357.3497,953.0
357.4158,913.0
357.482,939.0
357.5482,859.0
357.6144,977.0
357.6805,920.0
357.7467,1002.0
357.8128,877.0
357.879,1005.0
357.9452,934.0
358.0114,1090.0
358.0775,1021.0
358.1436,1102.0
358.2097,1046.0
358.2759,1147.0
358.342,1157.0
358.4082,1228.0
358.4743,1077.0
358.5404,1207.0
358.6065,1041.0
358.6726,1014.0
358.7387,938.0
358.8049,1080.0
358.871,969.0
358.9371,1082.0
359.0032,949.0
359.0693,967.0
359.1353,860.0
359.2014,914.0
359.2676,839.0
359.3336,910.0
359.3997,767.0
359.4658,916.0
359.5318,815.0
359.5979,919.0
359.664,775.0
359.7301,865.0
359.7961,812.0
359.8622,881.0
359.9282,837.0
359.9943,921.0
360.0603,778.0
360.1264,896.0
360.1924,794.0
360.2585,870.0
360.3244,800.0
360.3905,867.0
360.4565,802.0
360.5225,905.0
360.5885,809.0
360.6546,908.0
360.7206,751.0
360.7866,921.0
360.8526,830.0
360.9185,848.0
360.9846,790.0
361.0506,855.0
361.1165,776.0
361.1825,889.0
361.2485,832.0
361.3145,893.0
361.3805,807.0
361.4465,890.0
361.5124,776.0
361.5784,874.0
361.6443,756.0
361.7103,879.0
361.7762,811.0
361.8422,922.0
361.9082,799.0
361.9741,826.0
362.04,789.0
362.106,873.0
362.1719,817.0
362.2379,855.0
362.3038,805.0
362.3697,900.0
362.4356,788.0
362.5015,914.0
362.5675,851.0
362.6334,908.0
362.6993,820.0
362.7652,878.0
362.8311,809.0
362.8969,913.0
362.9629,782.0
363.0287,910.0
363.0947,813.0
363.1605,940.0
363.2264,818.0
363.2923,885.0
363.3582,811.0
363.424,854.0
363.4899,832.0
363.5557,937.0
363.6216,828.0
363.6874,889.0
363.7533,791.0
363.8191,862.0
363.885,808.0
363.9508,856.0
364.0167,740.0
364.0825,895.0
364.1483,793.0
364.2142,906.0
364.28,802.0
364.3458,886.0
364.4116,771.0
364.4774,860.0
364.5432,835.0
364.609,837.0
364.6748,771.0
364.7406,887.0
364.8065,808.0
364.8722,899.0
364.938,794.0
365.0038,889.0
365.0696,829.0
365.1354,890.0
365.2011,769.0
365.2669,865.0
365.3326,810.0
365.3984,888.0
365.4642,801.0
365.5299,904.0
365.5957,794.0
365.6614,897.0
365.7272,838.0
365.7929,900.0
365.8587,782.0
365.9244,909.0
365.9902,830.0
366.0559,853.0
366.1216,788.0
366.1873,891.0
366.253,814.0
366.3188,859.0
366.3845,838.0
366.4502,874.0
366.5159,789.0
366.5816,923.0
366.6473,831.0
366.713,879.0
366.7787,803.0
366.8444,878.0
366.91,787.0
366.9757,897.0
367.0414,833.0
367.1071,911.0
367.1727,817.0
367.2384,853.0
367.3041,812.0
367.3697,836.0
367.4354,769.0
367.501,864.0
367.5667,758.0
367.6323,886.0
367.698,796.0
367.7636,884.0
367.8292,794.0
367.8948,867.0
367.9605,793.0
368.0261,810.0
368.0918,758.0
368.1573,857.0
368.223,747.0
368.2885,882.0
368.3542,759.0
368.4198,865.0
368.4854,780.0
368.551,851.0
368.6165,751.0
368.6821,847.0
368.7477,768.0
368.8133,858.0
368.8789,787.0
368.9445,871.0
369.01,793.0
369.0756,840.0
369.1411,811.0
369.2067,853.0
369.2723,767.0
369.3379,872.0
369.4034,786.0
369.4689,799.0
369.5345,778.0
369.6,823.0
369.6656,750.0
369.7311,815.0
369.7966,769.0
369.8622,849.0
369.9277,789.0
369.9932,839.0
370.0587,737.0
370.1242,800.0
370.1897,772.0
370.2552,818.0
370.3207,771.0
370.3862,864.0
370.4517,776.0
370.5172,868.0
370.5827,787.0
370.6482,875.0
370.7136,800.0
370.7791,836.0
370.8446,780.0
370.9101,835.0
370.9756,745.0
371.041,890.0
371.1064,782.0
371.1719,834.0
371.2373,777.0
371.3028,928.0
371.3683,813.0
371.4337,857.0
371.4991,759.0
371.5646,890.0
371.63,776.0
371.6954,852.0
371.7608,788.0
371.8263,855.0
371.8917,801.0
371.9571,824.0
372.0225,792.0
372.0879,864.0
372.1533,775.0
372.2187,884.0
372.2841,780.0
372.3495,932.0
372.4149,798.0
372.4803,881.0
372.5457,802.0
372.611,876.0
372.6764,772.0
372.7418,937.0
372.8071,824.0
372.8725,883.0
372.9379,820.0
373.0032,892.0
373.0686,818.0
373.1339,896.0
373.1992,769.0
373.2646,892.0
373.3299,778.0
373.3953,883.0
373.4606,836.0
373.5259,926.0
373.5912,824.0
373.6566,871.0
373.7219,795.0
373.7872,864.0
373.8525,809.0
373.9178,894.0
373.9831,821.0
374.0484,901.0
374.1137,842.0
374.179,876.0
374.2443,807.0
374.3096,924.0
374.3749,794.0
374.4401,927.0
374.5054,794.0
374.5706,915.0
374.636,774.0
374.7012,901.0
374.7665,857.0
374.8318,917.0
374.897,855.0
374.9622,903.0
375.0275,792.0
375.0927,892.0
375.158,842.0
375.2232,875.0
375.2885,817.0
375.3537,882.0
375.4189,782.0
375.4841,891.0
375.5493,827.0
375.6145,906.0
375.6797,845.0
375.745,869.0
375.8101,793.0
375.8754,907.0
375.9406,821.0
376.0057,938.0
376.071,838.0
376.1361,916.0
376.2013,869.0
376.2665,936.0
376.3317,817.0
376.3969,933.0
376.462,814.0
376.5272,944.0
376.5923,866.0
376.6575,932.0
376.7226,806.0
376.7878,919.0
376.8529,834.0
376.9181,961.0
376.9832,894.0
377.0483,883.0
377.1135,845.0
377.1786,929.0
377.2437,876.0
377.3089,917.0
377.374,863.0
377.4391,952.0
377.5042,866.0
377.5693,902.0
377.6344,876.0
377.6995,965.0
377.7646,814.0
377.8297,963.0
377.8948,849.0
377.9599,978.0
378.025,876.0
378.09,933.0
378.1551,893.0
378.2202,934.0
378.2852,825.0
378.3503,956.0
378.4154,866.0
378.4804,962.0
378.5455,887.0
378.6105,988.0
378.6755,892.0
378.7406,947.0
378.8057,921.0
378.8707,947.0
378.9357,860.0
379.0008,1034.0
379.0658,903.0
379.1308,1016.0
379.1958,943.0
379.2609,968.0
379.3259,887.0
379.3908,1023.0
379.4558,944.0
379.5208,1027.0
379.5858,932.0
379.6509,1029.0
379.7159,943.0
379.7808,1030.0
379.8458,963.0
379.9108,1032.0
379.9758,936.0
380.0407,1085.0
380.1057,989.0
380.1707,1071.0
380.2356,974.0
380.3006,1040.0
380.3655,1028.0
380.4305,1076.0
380.4955,935.0
380.5604,1055.0
380.6253,970.0
380.6902,1112.0
380.7552,988.0
380.8201,1087.0
380.885,987.0
380.95,1055.0
381.0149,1020.0
381.0798,1118.0
381.1447,1027.0
381.2096,1149.0
381.2745,1065.0
381.3394,1104.0
381.4043,1037.0
381.4692,1149.0
381.5341,1082.0
381.5989,1148.0
381.6638,1052.0
381.7287,1178.0
381.7936,1044.0
381.8585,1209.0
381.9233,1124.0
381.9882,1188.0
382.053,1165.0
382.1179,1196.0
382.1828,1108.0
382.2476,1278.0
382.3124,1124.0
382.3773,1204.0
382.4421,1204.0
382.507,1202.0
382.5718,1187.0
382.6366,1222.0
382.7014,1124.0
382.7663,1244.0
382.8311,1131.0
382.8959,1263.0
382.9607,1145.0
383.0255,1210.0
383.0903,1194.0
383.1551,1279.0
383.2199,1211.0
383.2847,1214.0
383.3495,1181.0
383.4143,1287.0
383.479,1163.0
383.5438,1259.0
383.6086,1191.0
383.6734,1280.0
383.7381,1219.0
383.8029,1299.0
383.8676,1177.0
383.9324,1281.0
383.9972,1240.0
384.0619,1297.0
384.1266,1273.0
384.1914,1276.0
384.2562,1246.0
384.3209,1296.0
384.3856,1262.0
384.4503,1402.0
384.515,1294.0
384.5797,1465.0
384.6445,1370.0
384.7092,1463.0
384.7739,1481.0
384.8386,1595.0
384.9033,1578.0
384.968,1725.0
385.0327,1531.0
385.0974,1596.0
385.162,1503.0
385.2267,1559.0
385.2914,1534.0
385.3561,1645.0
385.4208,1532.0
385.4854,1451.0
385.5501,1399.0
385.6147,1507.0
385.6794,1448.0
385.7441,1530.0
385.8087,1461.0
385.8734,1615.0
385.938,1581.0
386.0027,1804.0
386.0673,1755.0
386.1319,1706.0
386.1966,1427.0
386.2612,1450.0
386.3258,1338.0
386.3904,1351.0
386.455,1323.0
386.5196,1465.0
386.5843,1457.0
386.6489,1623.0
386.7135,1557.0
386.778,1773.0
386.8426,1776.0
386.9072,1930.0
386.9718,1917.0
387.0364,2064.0
387.101,1776.0
387.1655,1466.0
387.2301,1329.0
387.2946,1232.0
387.3593,1160.0
387.4238,1246.0
387.4884,1207.0
387.5529,1300.0
387.6175,1248.0
387.682,1550.0
387.7466,1419.0
387.8111,1683.0
387.8756,1642.0
387.9402,1932.0
388.0047,1961.0
388.0692,2295.0
388.1337,2235.0
388.1982,2579.0
388.2628,2296.0
388.3272,1620.0
388.3918,1155.0
388.4563,1035.0
388.5208,885.0
388.5852,992.0
388.6497,810.0
388.7142,887.0
388.7787,849.0
388.8432,884.0
388.9077,808.0
388.9721,871.0
389.0366,817.0
389.1011,894.0
389.1655,788.0
389.23,884.0
389.2944,819.0
389.3589,896.0
389.4233,805.0
389.4878,898.0
389.5522,808.0
389.6167,913.0
389.6811,812.0
389.7455,876.0
389.8099,807.0
389.8744,872.0
389.9388,842.0
390.0032,904.0
390.0676,818.0
390.132,901.0
390.1964,830.0
390.2608,897.0
390.3252,852.0
390.3896,893.0
390.454,874.0
390.5184,929.0
390.5827,776.0
390.6471,926.0
390.7115,842.0
390.7759,947.0
390.8402,846.0
390.9046,930.0
390.9689,855.0
391.0333,891.0
391.0977,849.0
391.162,923.0
391.2264,817.0
391.2907,903.0
391.355,853.0
391.4193,916.0
391.4837,849.0
391.548,916.0
391.6123,845.0
391.6767,912.0
391.741,834.0
391.8053,968.0
391.8696,820.0
391.9339,934.0
391.9982,854.0
392.0625,947.0
392.1268,868.0
392.1911,904.0
392.2553,847.0
392.3196,899.0
392.3839,851.0
392.4482,934.0
392.5125,832.0
392.5767,967.0
392.641,857.0
392.7053,901.0
392.7695,841.0
392.8338,954.0
392.898,909.0
392.9622,914.0
393.0265,854.0
393.0908,918.0
393.155,897.0
393.2192,974.0
393.2834,911.0
393.3477,967.0
393.4118,869.0
393.476,952.0
393.5403,869.0
393.6045,941.0
393.6687,847.0
393.7329,908.0
393.7971,832.0
393.8613,922.0
393.9255,820.0
393.9897,883.0
394.0539,840.0
394.118,906.0
394.1822,793.0
394.2464,876.0
394.3105,875.0
394.3747,936.0
394.4389,895.0
394.503,940.0
394.5672,832.0
394.6313,927.0
394.6954,882.0
394.7596,909.0
394.8238,832.0
394.8879,944.0
394.952,801.0
395.0161,883.0
395.0803,796.0
395.1444,950.0
395.2085,818.0
395.2726,930.0
395.3367,859.0
395.4008,920.0
395.4649,821.0
395.529,861.0
395.5931,813.0
395.6572,931.0
395.7213,798.0
395.7854,870.0
395.8495,828.0
395.9135,912.0
395.9776,799.0
396.0417,887.0
396.1057,821.0
396.1698,874.0
396.2339,788.0
396.2979,905.0
396.362,787.0
396.426,852.0
396.4901,843.0
396.5541,868.0
396.6181,846.0
396.6821,905.0
396.7462,818.0
396.8102,909.0
396.8743,816.0
396.9383,929.0
397.0023,802.0
397.0662,877.0
397.1302,796.0
397.1943,864.0
397.2583,776.0
397.3223,821.0
397.3862,818.0
397.4502,840.0
397.5142,814.0
397.5782,882.0
397.6422,808.0
397.7061,827.0
397.7701,782.0
397.8341,863.0
397.898,805.0
397.962,900.0
398.0259,797.0
398.0899,861.0
398.1538,797.0
398.2178,856.0
398.2817,826.0
398.3456,884.0
398.4096,772.0
398.4735,842.0
398.5374,822.0
398.6013,917.0
398.6653,786.0
398.7292,874.0
398.7931,821.0
398.857,899.0
398.9209,784.0
398.9848,899.0
399.0487,855.0
399.1125,930.0
399.1765,783.0
399.2404,908.0
399.3042,849.0
399.3681,905.0
399.432,785.0
399.4958,903.0
399.5597,826.0
399.6236,930.0
399.6875,848.0
399.7513,914.0
399.8152,867.0
399.879,919.0
399.9428,873.0
400.0067,894.0
400.0705,855.0
400.1343,931.0
400.1982,843.0
400.262,942.0
400.3258,813.0
400.3896,881.0
400.4534,843.0
400.5172,873.0
400.581,807.0
400.6448,888.0
400.7086,820.0
400.7724,901.0
400.8362,822.0
400.9,977.0
400.9638,788.0
401.0276,932.0
401.0913,900.0
401.1551,919.0
401.2189,826.0
401.2826,908.0
401.3464,844.0
401.4102,926.0
401.4739,775.0
401.5376,921.0
401.6014,870.0
401.6651,934.0
401.7289,825.0
401.7926,929.0
401.8564,842.0
401.92,927.0
401.9838,865.0
402.0475,908.0
402.1112,822.0
402.175,901.0
402.2386,809.0
402.3023,866.0
402.366,838.0
402.4297,973.0
402.4934,870.0
402.5571,948.0
402.6208,893.0
402.6845,911.0
402.7482,868.0
402.8118,959.0
402.8755,832.0
402.9392,950.0
403.0028,835.0
403.0665,922.0
403.1301,863.0
403.1938,936.0
403.2574,859.0
403.3211,985.0
403.3847,823.0
403.4484,913.0
403.512,826.0
403.5756,935.0
403.6393,878.0
403.7029,955.0
403.7665,896.0
403.8301,935.0
403.8937,851.0
403.9573,937.0
404.0209,835.0
404.0845,966.0
404.1481,827.0
404.2117,949.0
404.2753,876.0
404.3389,929.0
404.4024,871.0
404.466,869.0
404.5296,858.0
404.5932,912.0
404.6567,854.0
404.7203,929.0
404.7838,844.0
404.8474,929.0
404.9109,796.0
404.9745,955.0
405.0381,884.0
405.1016,958.0
405.1651,836.0
405.2286,930.0
405.2922,851.0
405.3557,930.0
405.4193,875.0
405.4828,954.0
405.5462,853.0
405.6097,949.0
405.6733,837.0
405.7368,933.0
405.8003,869.0
405.8638,942.0
405.9272,892.0
405.9907,924.0
406.0542,856.0
406.1177,968.0
406.1812,851.0
406.2446,936.0
406.3081,858.0
406.3716,944.0
406.435,874.0
406.4985,897.0
406.562,868.0
406.6254,945.0
406.6888,866.0
406.7523,933.0
406.8157,818.0
406.8791,934.0
406.9426,868.0
407.006,913.0
407.0694,892.0
407.1328,987.0
407.1962,839.0
407.2597,908.0
407.3231,946.0
407.3865,998.0
407.4499,841.0
407.5133,975.0
407.5767,912.0
407.64,963.0
407.7034,881.0
407.7668,972.0
407.8302,857.0
407.8936,980.0
407.9569,899.0
408.0203,992.0
408.0836,912.0
408.147,1026.0
408.2104,928.0
408.2737,999.0
408.3371,894.0
408.4004,1036.0
408.4637,901.0
408.5271,1004.0
408.5905,897.0
408.6537,983.0
408.7171,866.0
408.7804,998.0
408.8437,942.0
408.907,978.0
408.9703,897.0
409.0336,1005.0
409.0969,933.0
409.1602,975.0
409.2235,929.0
409.2868,978.0
409.3501,912.0
409.4134,1006.0
409.4767,919.0
409.5399,1038.0
409.6032,935.0
409.6665,1004.0
409.7297,895.0
409.793,983.0
409.8563,937.0
409.9195,957.0
409.9827,906.0
410.046,941.0
410.1092,961.0
410.1725,1032.0
410.2357,918.0
410.299,975.0
410.3622,924.0
410.4254,956.0
410.4886,928.0
410.5518,941.0
410.615,879.0
410.6782,980.0
410.7414,904.0
410.8046,1004.0
410.8678,930.0
410.931,997.0
410.9942,886.0
411.0574,972.0
411.1205,918.0
411.1837,999.0
411.2469,862.0
411.3101,905.0
411.3733,926.0
411.4364,983.0
411.4995,875.0
411.5627,949.0
411.6259,900.0
411.689,949.0
411.7521,887.0
411.8153,1005.0
411.8784,932.0
411.9415,966.0
412.0046,916.0
412.0678,963.0
412.1309,882.0
412.194,924.0
412.2571,901.0
412.3203,990.0
412.3833,881.0
412.4464,1009.0
412.5096,900.0
412.5727,926.0
412.6357,869.0
412.6988,980.0
412.7619,878.0
412.825,962.0
412.8881,829.0
412.9511,944.0
413.0142,844.0
413.0772,957.0
413.1403,829.0
413.2033,954.0
413.2664,842.0
413.3294,962.0
413.3925,874.0
413.4555,956.0
413.5186,871.0
413.5816,935.0
413.6446,833.0
413.7076,927.0
413.7707,842.0
413.8337,899.0
413.8967,853.0
413.9597,968.0
414.0227,927.0
414.0857,951.0
414.1487,855.0
414.2117,940.0
414.2747,822.0
414.3376,969.0
414.4006,881.0
414.4636,979.0
414.5266,862.0
414.5896,941.0
414.6525,928.0
414.7155,980.0
414.7784,907.0
414.8414,989.0
414.9044,930.0
414.9673,1050.0
415.0303,910.0
415.0932,1047.0
415.1561,970.0
415.2191,973.0
415.282,889.0
415.3449,993.0
415.4079,915.0
415.4708,977.0
415.5336,896.0
415.5966,996.0
415.6595,1014.0
415.7224,1037.0
415.7853,926.0
415.8482,958.0
415.9111,888.0
415.9739,887.0
416.0368,900.0
416.0997,949.0
416.1626,913.0
416.2255,1014.0
416.2883,969.0
416.3512,1002.0
416.414,940.0
416.4769,1030.0
416.5397,971.0
416.6026,1020.0
416.6654,945.0
416.7283,1012.0
416.7911,901.0
416.8539,931.0
416.9167,898.0
416.9796,980.0
417.0424,920.0
417.1052,1006.0
417.168,893.0
417.2308,999.0
417.2936,926.0
417.3564,986.0
417.4193,901.0
417.4821,978.0
417.5448,917.0
417.6076,1037.0
417.6704,939.0
417.7332,952.0
417.796,913.0
417.8587,1016.0
417.9215,954.0
417.9842,1051.0
418.047,940.0
418.1098,972.0
418.1725,914.0
418.2353,925.0
418.298,801.0
418.3607,962.0
418.4235,820.0
418.4862,991.0
418.549,886.0
418.6117,940.0
418.6744,843.0
418.7371,952.0
418.7998,833.0
418.8625,943.0
418.9252,880.0
418.9879,935.0
419.0507,870.0
419.1133,982.0
419.176,835.0
419.2387,976.0
419.3014,885.0
419.3641,1013.0
419.4268,1011.0
419.4894,1033.0
419.5521,994.0
419.6147,1094.0
419.6774,950.0
419.7401,979.0
419.8027,918.0
419.8654,905.0
419.928,863.0
419.9906,927.0
420.0533,859.0
420.1159,945.0
420.1785,874.0
420.2411,899.0
420.3038,835.0
420.3664,885.0
420.429,782.0
420.4916,913.0
420.5542,851.0
420.6168,933.0
420.6794,840.0
420.742,897.0
420.8046,872.0
420.8672,911.0
420.9297,868.0
420.9923,990.0
421.0549,824.0
421.1175,978.0
421.18,879.0
421.2426,932.0
421.3052,887.0
421.3677,994.0
421.4303,953.0
421.4928,1021.0
421.5554,842.0
421.6179,903.0
421.6804,841.0
421.743,828.0
421.8055,846.0
421.868,881.0
421.9305,773.0
421.993,856.0
422.0556,786.0
422.1181,885.0
422.1806,778.0
422.2431,868.0
422.3055,822.0
422.368,917.0
422.4305,808.0
422.493,861.0
422.5555,754.0
422.618,895.0
422.6805,778.0
422.7429,886.0
422.8054,830.0
422.8679,869.0
422.9303,775.0
422.9928,909.0
423.0552,799.0
423.1177,913.0
423.1801,766.0
423.2425,919.0
423.305,830.0
423.3674,901.0
423.4298,828.0
423.4922,903.0
423.5547,797.0
423.617,905.0
423.6795,816.0
423.7419,876.0
423.8043,855.0
423.8667,904.0
423.9291,892.0
423.9915,932.0
424.0538,836.0
424.1163,915.0
424.1786,798.0
424.241,900.0
424.3034,842.0
424.3658,932.0
424.4281,897.0
424.4905,937.0
424.5529,824.0
424.6152,951.0
424.6775,804.0
424.7399,944.0
424.8022,880.0
424.8646,946.0
424.9269,831.0
424.9892,930.0
425.0515,920.0
425.1139,966.0
425.1762,813.0
425.2385,947.0
425.3008,899.0
425.3631,948.0
425.4254,875.0
425.4877,976.0
425.55,885.0
425.6123,947.0
425.6746,938.0
425.7369,969.0
425.7992,926.0
425.8614,968.0
425.9237,923.0
425.9859,993.0
426.0482,930.0
426.1105,999.0
426.1727,932.0
426.235,937.0
426.2972,888.0
426.3595,953.0
426.4217,869.0
426.4839,974.0
426.5462,892.0
426.6084,916.0
426.6706,898.0
426.7328,970.0
426.795,919.0
426.8573,940.0
426.9195,898.0
426.9817,951.0
427.0439,857.0
427.1061,963.0
427.1683,910.0
427.2305,949.0
427.2927,881.0
427.3549,956.0
427.417,877.0
427.4792,943.0
427.5413,834.0
427.6035,964.0
427.6657,872.0
427.7278,938.0
427.79,875.0
427.8521,949.0
427.9142,890.0
427.9764,950.0
428.0386,827.0
428.1007,929.0
428.1628,880.0
428.2249,949.0
428.287,843.0
428.3492,947.0
428.4113,862.0
428.4734,926.0
428.5355,830.0
428.5976,911.0
428.6597,869.0
428.7218,937.0
428.7839,827.0
428.846,925.0
428.9081,813.0
428.9702,930.0
429.0322,808.0
429.0943,927.0
429.1563,840.0
429.2184,910.0
429.2805,847.0
429.3425,878.0
429.4046,825.0
429.4666,876.0
429.5287,833.0
429.5908,889.0
429.6528,789.0
429.7148,892.0
429.7768,816.0
429.8388,834.0
429.9008,806.0
429.9629,894.0
430.0249,840.0
430.0869,904.0
430.1489,799.0
430.2109,911.0
430.2729,815.0
430.3349,866.0
430.3969,802.0
430.4589,869.0
430.5208,829.0
430.5828,877.0
430.6448,751.0
430.7068,873.0
430.7688,808.0
430.8307,856.0
430.8926,852.0
430.9546,859.0
431.0165,790.0
431.0785,878.0
431.1404,786.0
431.2024,908.0
431.2643,797.0
431.3262,873.0
431.3881,853.0
431.4501,861.0
431.512,790.0
431.5739,912.0
431.6358,764.0
431.6977,842.0
431.7596,782.0
431.8215,813.0
431.8834,804.0
431.9453,832.0
432.0072,809.0
432.0691,875.0
432.131,778.0
432.1928,892.0
432.2547,750.0
432.3165,848.0
432.3784,753.0
432.4403,845.0
432.5021,798.0
432.564,881.0
432.6258,748.0
432.6876,892.0
432.7495,774.0
432.8113,811.0
432.8732,740.0
432.935,826.0
432.9968,758.0
433.0586,859.0
433.1204,757.0
433.1823,874.0
433.2441,821.0
433.3059,817.0
433.3677,803.0
433.4295,864.0
433.4912,765.0
433.5531,874.0
433.6148,782.0
433.6766,905.0
433.7384,754.0
433.8001,864.0
433.8619,809.0
433.9237,903.0
433.9854,802.0
434.0472,865.0
434.1089,780.0
434.1707,828.0
434.2324,827.0
434.2942,851.0
434.3559,774.0
434.4177,892.0
434.4794,820.0
434.5411,907.0
434.6028,813.0
434.6645,859.0
434.7263,778.0
434.788,882.0
434.8497,787.0
434.9113,874.0
434.973,785.0
435.0347,875.0
435.0965,767.0
435.1581,869.0
435.2198,819.0
435.2815,858.0
435.3431,817.0
435.4048,879.0
435.4665,796.0
435.5282,885.0
435.5898,809.0
435.6515,860.0
435.7131,793.0
435.7747,888.0
435.8363,788.0
435.898,870.0
435.9597,790.0
436.0213,868.0
436.0829,806.0
436.1445,920.0
436.2061,827.0
436.2678,911.0
436.3294,872.0
436.391,903.0
436.4525,870.0
436.5141,903.0
436.5757,831.0
436.6373,870.0
436.6989,783.0
436.7605,903.0
436.8221,825.0
436.8836,843.0
436.9452,809.0
437.0067,907.0
437.0684,867.0
437.1299,882.0
437.1914,755.0
437.253,884.0
437.3145,801.0
437.3761,863.0
437.4376,787.0
437.4992,889.0
437.5607,764.0
437.6222,858.0
437.6837,759.0
437.7452,867.0
437.8067,778.0
437.8683,864.0
437.9298,803.0
437.9913,875.0
438.0528,819.0
438.1143,827.0
438.1757,792.0
438.2372,831.0
438.2987,813.0
438.3602,841.0
438.4217,791.0
438.4831,836.0
438.5446,815.0
438.6061,852.0
438.6675,784.0
438.729,831.0
438.7904,752.0
438.8519,863.0
438.9133,776.0
438.9747,830.0
439.0362,777.0
439.0976,860.0
439.159,795.0
439.2204,876.0
439.2819,719.0
439.3433,898.0
439.4047,764.0
439.4661,847.0
439.5275,784.0
439.5889,847.0
439.6503,777.0
439.7116,858.0
439.7731,827.0
439.8345,898.0
439.8958,733.0
439.9572,844.0
440.0186,783.0
440.0799,859.0
440.1413,779.0
440.2027,868.0
440.264,764.0
440.3253,869.0
440.3867,777.0
440.448,895.0
440.5093,826.0
440.5707,874.0
440.632,764.0
440.6934,850.0
440.7546,775.0
440.816,883.0
440.8773,773.0
440.9386,876.0
440.9999,809.0
441.0612,817.0
441.1225,803.0
441.1838,844.0
441.2451,792.0
441.3063,892.0
441.3677,778.0
441.429,857.0
441.4902,764.0
441.5515,884.0
441.6127,780.0
441.674,833.0
441.7353,810.0
441.7965,848.0
441.8578,764.0
441.919,808.0
441.9802,792.0
442.0414,879.0
442.1027,778.0
442.164,872.0
442.2252,808.0
442.2864,848.0
442.3476,793.0
442.4088,883.0
442.47,828.0
442.5312,858.0
442.5924,790.0
442.6536,868.0
442.7148,801.0
442.776,814.0
442.8372,735.0
442.8984,889.0
442.9596,762.0
443.0207,886.0
443.0819,765.0
443.143,839.0
443.2042,802.0
443.2653,897.0
443.3265,787.0
443.3877,840.0
443.4488,789.0
443.5099,859.0
443.5711,788.0
443.6322,861.0
443.6934,790.0
443.7545,904.0
443.8156,799.0
443.8767,860.0
443.9378,798.0
443.9989,867.0
444.0601,800.0
444.1212,883.0
444.1822,824.0
444.2433,875.0
444.3044,811.0
444.3654,882.0
444.4265,735.0
444.4877,870.0
444.5487,811.0
444.6098,887.0
444.6708,855.0
444.7319,881.0
444.7929,787.0
444.854,891.0
444.915,839.0
444.9761,867.0
445.0371,774.0
445.0981,847.0
445.1592,765.0
445.2203,893.0
445.2812,777.0
445.3423,923.0
445.4033,799.0
445.4643,898.0
445.5253,784.0
445.5862,912.0
445.6473,791.0
445.7083,861.0
445.7693,835.0
445.8303,882.0
445.8912,798.0
445.9522,859.0
446.0132,810.0
446.0742,893.0
446.1352,819.0
446.1961,867.0
446.257,793.0
446.318,875.0
446.379,794.0
446.4399,811.0
446.5009,777.0
446.5618,860.0
446.6227,781.0
446.6836,849.0
446.7446,793.0
446.8055,844.0
446.8664,788.0
446.9273,828.0
446.9883,734.0
447.0491,878.0
447.11,772.0
447.171,874.0
447.2319,748.0
447.2927,911.0
447.3536,795.0
447.4145,856.0
447.4753,795.0
447.5363,834.0
447.5971,751.0
447.658,847.0
447.7188,734.0
447.7797,821.0
447.8405,745.0
447.9014,845.0
447.9623,713.0
448.0231,815.0
448.0839,690.0
448.1447,806.0
448.2056,718.0
448.2664,818.0
448.3272,749.0
448.3881,853.0
448.4489,763.0
448.5096,775.0
448.5705,737.0
448.6312,808.0
448.6921,762.0
448.7529,831.0
448.8137,759.0
448.8744,802.0
448.9352,764.0
448.9959,807.0
449.0567,743.0
449.1175,821.0
449.1783,693.0
449.239,816.0
449.2998,743.0
449.3605,837.0
449.4213,700.0
449.4821,812.0
449.5428,730.0
449.6035,799.0
449.6642,752.0
449.725,804.0
449.7857,702.0
449.8464,853.0
449.9071,719.0
449.9679,840.0
450.0285,722.0
450.0892,817.0
450.1499,712.0
450.2106,767.0
450.2714,740.0
450.332,779.0
450.3927,750.0
450.4534,798.0
450.514,737.0
450.5747,784.0
450.6354,761.0
450.696,819.0
450.7567,731.0
450.8174,804.0
450.878,748.0
450.9386,820.0
450.9993,715.0
451.0599,785.0
451.1206,742.0
451.1812,798.0
451.2418,716.0
451.3024,809.0
451.363,712.0
451.4236,797.0
451.4843,723.0
451.5449,810.0
451.6054,726.0
451.666,788.0
451.7267,738.0
451.7873,773.0
451.8478,677.0
451.9084,813.0
451.969,696.0
452.0295,777.0
452.0901,748.0
452.1507,798.0
452.2113,668.0
452.2718,772.0
452.3324,716.0
452.3929,778.0
452.4534,701.0
452.5139,814.0
452.5745,702.0
452.635,796.0
452.6956,725.0
452.7561,774.0
452.8166,765.0
452.8771,809.0
452.9377,704.0
452.9981,808.0
453.0586,683.0
453.1191,808.0
453.1796,742.0
453.2401,828.0
453.3006,754.0
453.3611,787.0
453.4216,690.0
453.4821,805.0
453.5425,694.0
453.6029,819.0
453.6634,713.0
453.7239,797.0
453.7844,750.0
453.8448,849.0
453.9052,711.0
453.9656,754.0
454.0261,700.0
454.0866,855.0
454.147,678.0
454.2074,831.0
454.2678,729.0
454.3282,782.0
454.3886,773.0
454.449,787.0
454.5095,789.0
454.5699,824.0
454.6302,741.0
454.6906,818.0
454.751,733.0
454.8114,884.0
454.8718,754.0
454.9322,838.0
454.9925,751.0
455.0529,840.0
455.1133,774.0
455.1736,791.0
455.234,777.0
455.2943,823.0
455.3547,758.0
455.415,835.0
455.4753,795.0
455.5357,804.0
455.5959,757.0
455.6563,843.0
455.7167,697.0
455.777,829.0
455.8373,780.0
455.8976,802.0
455.9579,777.0
456.0182,832.0
456.0785,742.0
456.1388,830.0
456.1991,755.0
456.2593,816.0
456.3196,752.0
456.3799,865.0
456.4402,783.0
456.5005,811.0
456.5607,754.0
456.621,802.0
456.6812,786.0
456.7414,809.0
456.8018,747.0
456.862,813.0
456.9222,729.0
456.9825,815.0
457.0426,714.0
457.1028,799.0
457.1631,724.0
457.2234,832.0
457.2835,739.0
457.3438,835.0
457.404,755.0
457.4641,836.0
457.5244,780.0
457.5846,829.0
457.6447,753.0
457.7049,869.0
457.7651,792.0
457.8253,824.0
457.8854,756.0
457.9456,810.0
458.0058,722.0
458.0659,828.0
458.1261,726.0
458.1862,832.0
458.2464,687.0
458.3066,839.0
458.3667,756.0
458.4268,789.0
458.4869,776.0
458.5471,733.0
458.6072,623.0
458.6674,672.0
458.7274,604.0
458.7876,688.0
458.8477,648.0
458.9077,673.0
458.9679,586.0
459.0279,694.0
459.0881,630.0
459.1481,702.0
459.2082,602.0
459.2683,737.0
459.3283,601.0
459.3884,695.0
459.4485,631.0
459.5086,673.0
459.5686,632.0
459.6287,654.0
459.6887,615.0
459.7487,725.0
459.8088,648.0
459.8688,670.0
459.9289,613.0
459.9889,727.0
460.0489,618.0
460.1089,716.0
460.1689,635.0
460.229,670.0
460.289,581.0
